TEXTURE AT STRAIN =    1.0000
   0.613   2.691   0.597  <-- length of average ellipsoid axes for phase
   90.00   90.00   -0.00  <-- Euler angles of average ellipsoid axes for phase
B       500
  108.38  125.04   44.82   0.0020000
 -117.44   50.71   45.04   0.0020000
  167.98   39.78   45.03   0.0020000
  145.90   61.74   32.70   0.0020000
  144.69   85.26    3.91   0.0020000
   23.54    0.83 -130.15   0.0020000
   17.05   59.30  -36.67   0.0020000
 -163.76  175.16  -25.41   0.0020000
  -48.17   54.94  134.78   0.0020000
  -66.42  125.57 -135.22   0.0020000
  -16.87  170.80  -47.49   0.0020000
   56.95  179.18  100.23   0.0020000
   41.04   55.00   45.00   0.0020000
   24.77  117.76  148.43   0.0020000
   50.31  121.19  -37.02   0.0020000
  -89.54   87.93  178.46   0.0020000
  120.54    1.63 -176.75   0.0020000
   87.18   69.81   21.34   0.0020000
   74.32   55.05 -135.63   0.0020000
  -57.95   13.78  140.19   0.0020000
 -145.66  124.85  -44.05   0.0020000
   -8.67  146.12 -134.97   0.0020000
  -77.31    2.16   47.22   0.0020000
  179.41   43.34 -135.03   0.0020000
  129.65   84.72   81.98   0.0020000
  116.28  123.18  -48.71   0.0020000
  -63.46   90.19  -89.25   0.0020000
   -7.65   68.28  156.54   0.0020000
  -86.11   90.04  -91.24   0.0020000
  -38.83  125.37  -44.67   0.0020000
  118.73   84.53   83.41   0.0020000
   19.24   54.49  -44.82   0.0020000
 -176.65  125.13  134.43   0.0020000
  -87.04   76.69 -103.65   0.0020000
  -42.31  125.55 -134.89   0.0020000
   35.95   55.10 -133.97   0.0020000
   22.55  126.36 -135.00   0.0020000
 -113.18   76.71 -168.29   0.0020000
 -122.73  112.33  114.26   0.0020000
   27.66   86.35   87.49   0.0020000
 -132.54  125.52   45.25   0.0020000
  114.60   88.45   91.18   0.0020000
  164.76   75.78 -165.46   0.0020000
  -59.96   54.74  134.82   0.0020000
  171.85   58.24 -128.01   0.0020000
 -153.39   99.57 -164.88   0.0020000
 -106.84   54.76   43.09   0.0020000
  129.65   55.31  134.62   0.0020000
  -52.21   54.76 -136.36   0.0020000
  -91.02   48.46 -135.42   0.0020000
  -94.36   13.28  -48.07   0.0020000
  -58.60   97.63  171.45   0.0020000
   37.41  125.20 -135.01   0.0020000
  167.18  167.47  -44.55   0.0020000
   70.75   54.81 -134.83   0.0020000
  -94.65  116.76  -30.27   0.0020000
   84.28  123.13  -49.22   0.0020000
  -25.04   54.01   44.42   0.0020000
  -86.68    0.61    0.00   0.0020000
   46.80   90.18   92.52   0.0020000
  167.42    1.24  -20.02   0.0020000
  -22.61  122.37  140.74   0.0020000
 -103.67   55.15 -134.92   0.0020000
  171.41  178.06  -60.20   0.0020000
  -52.97   55.42 -135.21   0.0020000
  164.77   54.72 -135.19   0.0020000
   20.64  132.95 -134.95   0.0020000
   41.10  125.35 -135.09   0.0020000
  -94.78   25.68   45.84   0.0020000
 -135.66   54.88 -135.37   0.0020000
   27.10   71.30   20.12   0.0020000
   -3.93   94.50  175.84   0.0020000
  111.69    5.57  138.09   0.0020000
 -117.35   78.94  -76.63   0.0020000
   57.06  175.49  123.57   0.0020000
  -58.87  178.53   24.41   0.0020000
    9.66  138.34 -135.00   0.0020000
  164.04   54.21   44.97   0.0020000
  134.04   83.04   85.17   0.0020000
    4.84  127.88   45.05   0.0020000
  178.17   65.01  152.29   0.0020000
   63.88    2.96  178.10   0.0020000
  -30.39  157.41  134.37   0.0020000
  -51.54  102.23 -167.88   0.0020000
   88.05    0.40    0.00   0.0020000
  155.70   80.59 -171.30   0.0020000
 -179.38   57.08  138.88   0.0020000
   55.05   90.42   92.59   0.0020000
   11.35  125.32   45.32   0.0020000
   12.51   55.20  -45.41   0.0020000
  147.69    7.91   24.68   0.0020000
   78.07   11.37   40.02   0.0020000
   94.97   87.01  177.24   0.0020000
   29.86  125.60 -134.89   0.0020000
  -51.95   91.23   -0.62   0.0020000
 -174.08  130.89 -134.99   0.0020000
  124.71  125.53  134.97   0.0020000
   72.63   63.92  -60.61   0.0020000
  101.85  124.93  -45.23   0.0020000
 -175.81   86.07   84.58   0.0020000
   77.44   55.07  -44.59   0.0020000
  179.99   89.19   89.17   0.0020000
  128.37   54.83   44.51   0.0020000
  172.69  125.81  134.83   0.0020000
   40.29   90.47   89.98   0.0020000
  125.45  118.04  -56.91   0.0020000
   30.46    7.10   32.88   0.0020000
  -35.40   54.75  134.88   0.0020000
   -0.01  125.33 -134.65   0.0020000
  -22.43   74.65 -106.35   0.0020000
   17.26   49.80 -134.90   0.0020000
   56.34  123.91   48.04   0.0020000
  -80.73  125.10  134.83   0.0020000
 -143.77   54.92 -135.68   0.0020000
  117.32   99.88  -99.84   0.0020000
  126.54  125.20  -44.68   0.0020000
   71.20   55.04   44.64   0.0020000
  -72.14   54.42  -45.21   0.0020000
 -144.57  113.87   26.33   0.0020000
    0.45  150.34  -44.36   0.0020000
   30.21    6.13  -46.27   0.0020000
   12.80   90.68   90.15   0.0020000
   67.68   75.10  166.69   0.0020000
  -89.89   54.89  135.26   0.0020000
 -148.56  142.55   44.96   0.0020000
  105.92  130.76   44.60   0.0020000
   88.84   89.78  -89.59   0.0020000
 -168.19  125.49  -45.12   0.0020000
 -160.34   54.57 -134.97   0.0020000
  -29.18  176.18 -103.69   0.0020000
    8.08   88.06    0.89   0.0020000
 -121.08  119.83  125.04   0.0020000
   42.99   91.31  -91.73   0.0020000
  -95.26   54.65  -45.91   0.0020000
 -148.85  125.15 -136.05   0.0020000
  -95.53  124.99  -44.73   0.0020000
  -82.21   83.15   87.16   0.0020000
  165.44   65.85  153.37   0.0020000
  -74.52   86.83    4.13   0.0020000
   26.47  125.18  135.84   0.0020000
  -43.94  134.73  134.89   0.0020000
  141.89  126.09  134.50   0.0020000
 -176.61   85.21   90.47   0.0020000
   91.67   19.79   45.73   0.0020000
 -154.52   95.62   85.53   0.0020000
  148.71  124.86   44.91   0.0020000
  132.67   55.07  133.93   0.0020000
   94.96   90.19   93.02   0.0020000
   29.36   90.12  -89.92   0.0020000
   86.91   55.17  134.89   0.0020000
 -170.17  125.32   45.25   0.0020000
  -51.12  125.06  -44.96   0.0020000
   65.80   78.52   11.25   0.0020000
 -113.96   57.42   50.20   0.0020000
  -99.76   85.30  -96.27   0.0020000
   99.89  147.66  135.25   0.0020000
  -95.96  125.74  -45.72   0.0020000
   47.49  146.93   45.22   0.0020000
  158.56   91.01   88.24   0.0020000
  173.47   85.49 -171.35   0.0020000
   16.92  124.48   47.22   0.0020000
  114.99   66.91 -155.53   0.0020000
 -111.73  124.69   43.95   0.0020000
 -138.35  125.38 -135.22   0.0020000
   90.34   55.55   46.68   0.0020000
   50.31  125.19   44.96   0.0020000
  -31.50   48.02  134.95   0.0020000
   96.86    1.54  145.63   0.0020000
  103.79   90.00  179.47   0.0020000
  123.71   55.01  135.72   0.0020000
  -41.58  123.15 -130.81   0.0020000
  -60.61  171.51  -40.17   0.0020000
 -175.82    4.51 -176.57   0.0020000
 -102.71   92.08   -6.49   0.0020000
  -79.67  125.53   44.09   0.0020000
  138.47  117.91  -32.21   0.0020000
  165.48  124.97  135.06   0.0020000
 -151.71  119.20 -146.08   0.0020000
 -110.31  121.90  -51.55   0.0020000
  110.40   83.16  -85.25   0.0020000
    2.14   54.03   45.81   0.0020000
  114.48   89.31 -178.73   0.0020000
 -125.80  123.51  131.26   0.0020000
 -100.84   54.88 -134.88   0.0020000
  129.56  124.94  134.67   0.0020000
  113.78   54.65   44.16   0.0020000
  161.08   56.33 -138.43   0.0020000
   32.97  118.63   57.09   0.0020000
 -154.88  120.79 -143.29   0.0020000
  146.12   78.39  -77.87   0.0020000
 -154.85   56.71  -49.32   0.0020000
  143.07   54.62  -45.16   0.0020000
  -76.36  125.44  -44.82   0.0020000
  -78.04   89.98   89.27   0.0020000
  -59.24   79.27  167.84   0.0020000
   72.44   92.38    0.15   0.0020000
  164.14  175.34 -155.71   0.0020000
   27.86  178.27   69.75   0.0020000
   80.93  131.42 -134.98   0.0020000
 -121.86   54.75   43.83   0.0020000
   68.25  167.58  143.11   0.0020000
   25.40  125.44   44.85   0.0020000
   18.90  124.97 -134.48   0.0020000
   98.01   87.21  -92.39   0.0020000
  -30.61   93.85   -3.11   0.0020000
   41.01   63.34  -59.68   0.0020000
  102.76  163.58  -40.32   0.0020000
 -100.52   94.72    0.35   0.0020000
   92.18    7.96   53.69   0.0020000
  -65.48  125.30  -45.28   0.0020000
  -69.50   55.32 -133.47   0.0020000
  170.31   19.01   42.74   0.0020000
  -54.21  140.74 -135.15   0.0020000
   25.32   89.17  179.42   0.0020000
  176.68  179.20    0.00   0.0020000
  104.64   81.95  -78.68   0.0020000
   22.62  125.14 -135.00   0.0020000
   -4.55   28.50 -134.97   0.0020000
   17.37   72.35 -161.21   0.0020000
 -155.92   78.71  168.96   0.0020000
   71.56  132.50  -44.89   0.0020000
 -159.53   88.96    2.94   0.0020000
 -167.55   54.86 -135.19   0.0020000
  -33.29  125.66  -45.13   0.0020000
  -45.12   89.34  179.38   0.0020000
  129.05   61.38 -146.90   0.0020000
  -30.46   96.29 -178.36   0.0020000
  -17.64   77.00   13.54   0.0020000
 -140.51   53.24 -135.15   0.0020000
 -147.97   89.84  -90.21   0.0020000
  -71.14   88.19  -91.09   0.0020000
  -10.86   85.61    5.19   0.0020000
  158.64  178.40   79.38   0.0020000
  141.86   54.82   45.46   0.0020000
  167.31  130.36  135.06   0.0020000
 -155.06   91.06   91.75   0.0020000
  165.75   96.26  -96.79   0.0020000
 -111.24   95.87  173.15   0.0020000
   59.93   81.88  -98.48   0.0020000
 -133.49   90.04 -178.99   0.0020000
   21.77   88.43   -0.28   0.0020000
   60.27   63.00 -120.22   0.0020000
  -11.14  126.98   45.11   0.0020000
  -55.57  176.16  -80.45   0.0020000
  -34.99   88.97  -90.03   0.0020000
  -71.40  124.53   46.48   0.0020000
 -118.50  119.41 -145.74   0.0020000
  111.78  125.45 -135.06   0.0020000
 -114.18  125.12   44.96   0.0020000
  -76.44   92.98  179.29   0.0020000
  -96.57   92.38   90.30   0.0020000
  119.61   87.56  -89.74   0.0020000
  -93.02   81.94 -174.01   0.0020000
  -38.41   83.08  177.25   0.0020000
   -2.67   54.62  134.72   0.0020000
  140.20   53.40   44.94   0.0020000
  -51.07  146.10 -135.99   0.0020000
   34.39  124.90   44.37   0.0020000
   19.29  125.68  -45.03   0.0020000
  119.35  124.75 -134.77   0.0020000
 -120.92   82.91 -174.02   0.0020000
  -86.40   89.61  -88.13   0.0020000
  -48.25  126.58   45.09   0.0020000
  124.39   53.70  134.66   0.0020000
 -147.86  147.67  135.10   0.0020000
  -20.13   54.59  -45.16   0.0020000
    6.47  165.88   41.85   0.0020000
  -97.03  176.15    5.03   0.0020000
 -152.14   95.68  -80.38   0.0020000
  -61.18  119.11 -123.86   0.0020000
  -43.60  125.01  134.91   0.0020000
 -174.31  126.52 -134.88   0.0020000
 -110.13  124.90  -45.82   0.0020000
  -79.42  124.64  134.21   0.0020000
  -90.94  125.16  134.81   0.0020000
    8.71  125.57  -45.38   0.0020000
 -129.55  124.92  -43.60   0.0020000
 -169.95  113.08   25.38   0.0020000
  101.55  153.33  135.48   0.0020000
   48.72  125.26   45.03   0.0020000
 -110.29  125.26  -45.35   0.0020000
  153.21   54.86  -45.02   0.0020000
 -102.16  125.57 -135.29   0.0020000
   75.39   85.83   91.06   0.0020000
 -119.39  176.13 -157.42   0.0020000
  -99.97  125.00  -45.17   0.0020000
   58.81  111.28  112.85   0.0020000
  150.98   58.92   52.97   0.0020000
  -25.82  124.51 -136.59   0.0020000
  -16.12    7.75 -134.76   0.0020000
  -82.03  125.36   45.24   0.0020000
   15.41   54.39  135.15   0.0020000
   58.79   58.68 -142.39   0.0020000
  -78.51   59.99   35.01   0.0020000
  170.97  176.60  -61.06   0.0020000
  -17.70   54.85  135.18   0.0020000
  145.38  123.73 -137.74   0.0020000
  -89.48   55.66  136.72   0.0020000
 -143.58  142.13  134.96   0.0020000
 -158.32  125.15  136.49   0.0020000
   27.28   81.13   -7.48   0.0020000
   21.96   53.86  134.92   0.0020000
    1.20   27.10   45.22   0.0020000
 -155.63   94.50    0.60   0.0020000
  -87.16  179.38    0.00   0.0020000
  -38.40   92.80  -95.92   0.0020000
  -50.73   89.36  179.92   0.0020000
 -120.76   85.87  176.03   0.0020000
  165.65  103.09 -166.37   0.0020000
  -97.15   90.45   89.80   0.0020000
   42.81  124.97  133.96   0.0020000
  -52.88  124.95  134.94   0.0020000
  179.47   54.44  134.45   0.0020000
 -172.30  125.46  135.49   0.0020000
 -147.94   52.71 -135.60   0.0020000
   60.47   94.20 -175.57   0.0020000
  -15.83   87.32   85.54   0.0020000
 -106.43   57.03   49.56   0.0020000
  -48.81   77.12 -166.30   0.0020000
 -171.37   90.56    2.87   0.0020000
   30.12  141.73   45.12   0.0020000
  107.81   89.24  -91.29   0.0020000
  -40.00   87.87  175.85   0.0020000
  107.78  125.26 -134.99   0.0020000
  -11.15    3.59 -179.60   0.0020000
  -36.28   89.99  -90.88   0.0020000
    3.24  125.85  134.65   0.0020000
   25.83  124.33   43.01   0.0020000
  107.30   89.12   -0.61   0.0020000
  173.62   69.61   21.90   0.0020000
  -58.38  114.45   62.96   0.0020000
   43.76   90.65  -89.45   0.0020000
  106.75  176.37   62.41   0.0020000
  -77.11   39.02  -44.77   0.0020000
   24.99  102.70   77.68   0.0020000
 -111.11   87.10   90.74   0.0020000
   11.27  130.78  135.02   0.0020000
   76.02   99.33 -170.37   0.0020000
  -29.46  120.61 -126.26   0.0020000
  167.40  124.88  -44.52   0.0020000
   91.11   13.80   41.11   0.0020000
   78.95  124.88 -135.66   0.0020000
   99.13   54.65   45.38   0.0020000
   25.26  173.09   28.44   0.0020000
  104.39  113.02   25.24   0.0020000
 -171.70  125.68 -135.41   0.0020000
   74.06   88.66    0.50   0.0020000
 -139.25  157.33   44.53   0.0020000
   47.35   54.83 -135.21   0.0020000
 -141.38  125.15   44.72   0.0020000
  117.39  125.46 -134.33   0.0020000
 -115.55  123.58   46.79   0.0020000
  -30.88  125.37  135.00   0.0020000
   93.98   91.18  -91.06   0.0020000
  112.64    6.53 -144.21   0.0020000
 -104.04   90.22  179.67   0.0020000
   11.57   97.93   -8.31   0.0020000
  -91.69   54.83   45.42   0.0020000
 -135.29  123.33   41.41   0.0020000
 -103.43   47.25 -135.09   0.0020000
  153.19   89.61   90.72   0.0020000
  -54.46   92.04   87.91   0.0020000
  159.28   97.76  175.18   0.0020000
 -152.04  124.80  -46.06   0.0020000
  124.99   55.79 -137.27   0.0020000
  164.30  173.35   -7.45   0.0020000
   22.18   90.57  -95.22   0.0020000
  118.20   55.59  135.14   0.0020000
  -24.47  177.25   27.02   0.0020000
  -50.16   91.91 -178.48   0.0020000
  113.38  134.11  -44.86   0.0020000
  132.29   54.64  135.75   0.0020000
 -125.01   54.74  -45.29   0.0020000
  -87.35    5.78  -62.46   0.0020000
    9.92  107.18  -73.45   0.0020000
   67.21   87.88  -89.38   0.0020000
 -115.17  157.98 -134.83   0.0020000
  -19.23   55.19  -46.16   0.0020000
   51.04   47.56  -44.95   0.0020000
  -38.60   65.60   62.92   0.0020000
 -100.69   67.22  -65.49   0.0020000
   22.11  125.61  134.82   0.0020000
 -178.13  129.29  135.08   0.0020000
  163.48   51.47  134.90   0.0020000
 -100.11  125.11  -44.45   0.0020000
   35.67   90.14  179.80   0.0020000
    7.60  124.73  -44.85   0.0020000
   88.80   54.73 -134.89   0.0020000
  172.68  125.95  134.94   0.0020000
  116.27  102.14  103.08   0.0020000
  136.13  171.13  137.23   0.0020000
  130.10   91.58  -84.63   0.0020000
 -122.61   92.32  -86.64   0.0020000
  145.12   54.49  135.22   0.0020000
   38.04   86.47   86.29   0.0020000
 -170.21  125.79 -134.92   0.0020000
  -69.36  126.05  -45.52   0.0020000
 -169.33   54.55 -134.62   0.0020000
   78.18   54.61   44.88   0.0020000
   65.87   55.15  -45.73   0.0020000
   47.01   11.39  -49.51   0.0020000
 -162.61   28.78  134.25   0.0020000
 -165.28   93.15    4.74   0.0020000
 -129.39   51.47  -45.04   0.0020000
   55.00   60.38 -145.29   0.0020000
 -142.05  124.34  -46.03   0.0020000
 -171.57   99.23  -93.79   0.0020000
 -114.39  123.24 -139.36   0.0020000
 -110.70   55.97  137.60   0.0020000
  -86.08   55.45   45.50   0.0020000
 -166.28  124.35   46.35   0.0020000
  123.94  139.37  -44.93   0.0020000
  -39.77   61.60 -122.92   0.0020000
    6.48   89.93  -90.72   0.0020000
  134.88  172.69  -85.20   0.0020000
  -19.26   55.02 -135.88   0.0020000
  -67.61  116.08   29.11   0.0020000
  -51.77   70.98 -159.73   0.0020000
  155.30   54.29 -135.27   0.0020000
  123.87  179.44    0.00   0.0020000
   64.67  125.53  135.24   0.0020000
  109.48   89.80 -178.97   0.0020000
   10.08  125.46 -135.30   0.0020000
  114.29  126.10 -134.56   0.0020000
   -3.90   55.01   45.46   0.0020000
 -105.05  106.81  162.52   0.0020000
 -156.11  108.52  -18.95   0.0020000
 -154.75  123.57  -48.46   0.0020000
  -82.69  150.56  134.85   0.0020000
    3.38   58.83   37.35   0.0020000
  172.53  104.59  104.48   0.0020000
   59.24   54.97 -135.33   0.0020000
 -174.30  127.92 -135.23   0.0020000
  -51.05   39.88 -134.75   0.0020000
  151.11  121.75  -38.41   0.0020000
   30.54    1.39 -136.38   0.0020000
   60.53   54.78  135.08   0.0020000
 -112.81   51.32  -44.16   0.0020000
  -72.16   55.09  135.86   0.0020000
 -146.43   89.41    1.94   0.0020000
   94.17   96.37   95.64   0.0020000
   55.75  106.32  -16.98   0.0020000
  -10.50   56.30   42.38   0.0020000
    6.02  124.75  133.74   0.0020000
   57.26  178.81 -135.49   0.0020000
  -67.66  125.99  134.69   0.0020000
 -178.92    4.18 -158.81   0.0020000
   84.56  107.85  -71.16   0.0020000
  -68.72   94.94  175.80   0.0020000
  101.54   49.53  134.58   0.0020000
 -168.94    6.66  -41.70   0.0020000
   70.41  125.01   45.07   0.0020000
  116.01   52.66   44.91   0.0020000
  170.61  114.51 -152.64   0.0020000
 -164.89   39.33 -135.07   0.0020000
  118.96  124.93 -134.32   0.0020000
  -94.63   54.78  -45.15   0.0020000
 -107.30   60.35  124.52   0.0020000
  155.33   87.61   86.83   0.0020000
  -75.35   55.59 -136.71   0.0020000
   35.67  116.55  120.05   0.0020000
 -163.12   59.96   54.70   0.0020000
   -1.39  101.98  -12.57   0.0020000
  -11.96  125.81   45.00   0.0020000
   41.00   54.73  134.47   0.0020000
    9.30   95.05   90.55   0.0020000
 -150.81    1.89 -138.88   0.0020000
  -41.58   56.84  138.41   0.0020000
  -39.68   57.39   39.22   0.0020000
    4.96  127.70  135.23   0.0020000
 -126.16  125.50  -45.04   0.0020000
  156.42    5.59  129.30   0.0020000
  -37.14  118.37 -122.60   0.0020000
   48.86  124.85 -134.38   0.0020000
 -126.79  119.40  -55.74   0.0020000
   22.79  172.95  126.78   0.0020000
  -64.09  125.94   44.45   0.0020000
  -80.08   56.12   42.21   0.0020000
 -126.19  128.42  -45.08   0.0020000
 -164.25   54.16 -135.01   0.0020000
    5.78   54.93  135.16   0.0020000
   36.81   89.06    0.27   0.0020000
 -167.27  124.04 -132.74   0.0020000
   63.59   51.16  -44.32   0.0020000
  139.98    4.37 -142.37   0.0020000
  112.25   89.14 -179.04   0.0020000
 -102.94   54.44  134.87   0.0020000
  -99.45   88.97  178.46   0.0020000
  118.25  123.91  132.63   0.0020000
  151.21  173.18 -131.35   0.0020000
 -126.44   94.34    2.88   0.0020000
 -135.38   85.43   86.31   0.0020000
   54.52   63.83   60.68   0.0020000
  156.06  176.62  -40.93   0.0020000
 -168.95  123.06  -43.07   0.0020000
  -57.07   97.71   -0.07   0.0020000
  105.24   88.59   -1.43   0.0020000
   27.05  125.20   45.22   0.0020000
   -7.96  125.28   45.15   0.0020000
 -124.15   92.73  -85.31   0.0020000
