TEXTURE AT STRAIN =    1.0000
   0.615   2.692   0.595  <-- length of average ellipsoid axes for phase
   90.05   90.00   -0.00  <-- Euler angles of average ellipsoid axes for phase
B       500
  107.17  124.16   42.92   0.0020000
 -117.33   40.21   44.84   0.0020000
  167.75   36.63   44.94   0.0020000
  147.00   64.42   28.53   0.0020000
  144.33   84.13    5.55   0.0020000
 -106.62    0.62    0.00   0.0020000
   13.13   63.80  -29.53   0.0020000
 -174.05  174.87  -36.14   0.0020000
  -48.19   55.06  134.62   0.0020000
  -65.98  128.52 -135.06   0.0020000
  -14.74  166.03  -45.20   0.0020000
  -43.27  179.41    0.00   0.0020000
   41.08   55.57   43.53   0.0020000
   25.88  115.04  152.20   0.0020000
   53.27  115.84  -28.89   0.0020000
  -89.44   88.03  178.35   0.0020000
  120.32    1.20 -176.49   0.0020000
   85.54   66.94   25.00   0.0020000
   78.51   59.06 -143.28   0.0020000
  -53.81   21.44  135.56   0.0020000
 -140.87  119.66  -34.76   0.0020000
   -8.31  144.85 -134.91   0.0020000
  -77.03    1.96   46.91   0.0020000
  179.43   37.39 -135.11   0.0020000
  129.35   81.43   80.64   0.0020000
  111.28  117.23  -58.95   0.0020000
  -63.45   90.14  -89.47   0.0020000
   -7.16   67.08  154.95   0.0020000
  -86.13   90.01  -90.89   0.0020000
  -38.00  125.18  -44.17   0.0020000
  118.78   80.63   80.41   0.0020000
   19.79   53.11  -44.85   0.0020000
 -179.71  122.49  129.52   0.0020000
  -84.31   68.66 -113.02   0.0020000
  -42.52  127.35 -134.93   0.0020000
   31.79   59.53 -125.94   0.0020000
   22.53  135.29 -134.86   0.0020000
 -114.97   72.50 -161.88   0.0020000
 -122.91  113.79  116.01   0.0020000
   27.96   86.18   86.72   0.0020000
 -133.24  126.02   45.30   0.0020000
  114.52   88.66   91.06   0.0020000
  161.75   68.33 -156.65   0.0020000
  -60.30   54.32  134.92   0.0020000
  168.45   63.72 -119.66   0.0020000
 -153.72  101.93 -165.77   0.0020000
 -102.98   56.97   39.92   0.0020000
  129.99   56.44  131.73   0.0020000
  -49.42   56.04 -138.19   0.0020000
  -92.61   40.53 -135.13   0.0020000
  -96.63   24.18  -45.26   0.0020000
  -59.07  103.49  166.20   0.0020000
   37.45  124.98 -135.02   0.0020000
  166.71  157.41  -45.29   0.0020000
   70.80   54.78 -134.93   0.0020000
  -94.83  115.06  -27.71   0.0020000
   79.56  116.69  -59.73   0.0020000
  -26.69   49.99   44.91   0.0020000
  -86.69    0.42    0.00   0.0020000
   46.71   90.18   91.89   0.0020000
  171.09    0.94  -23.74   0.0020000
  -17.25  116.35  150.37   0.0020000
 -103.27   55.44 -134.39   0.0020000
  174.47  178.32  -57.00   0.0020000
  -53.07   55.61 -135.30   0.0020000
  164.79   54.99 -135.69   0.0020000
   19.88  141.62 -134.81   0.0020000
   41.03  125.22 -135.19   0.0020000
  -93.81   30.57   44.97   0.0020000
 -133.61   56.96 -139.49   0.0020000
   26.04   67.16   25.09   0.0020000
   -4.18   95.94  174.14   0.0020000
  113.96    7.27  135.77   0.0020000
 -117.87   74.71  -73.77   0.0020000
   64.30  174.70  131.05   0.0020000
  -56.96  178.87   26.40   0.0020000
    8.95  142.52 -134.85   0.0020000
  164.29   50.20   44.93   0.0020000
  134.90   81.45   81.95   0.0020000
    4.74  139.26   45.13   0.0020000
  178.93   65.45  152.70   0.0020000
   67.31    2.25  174.60   0.0020000
  -30.46  148.47  134.96   0.0020000
  -48.41  110.86 -157.74   0.0020000
   88.04    0.27    0.00   0.0020000
  153.48   73.96 -163.42   0.0020000
  178.54   61.21  146.45   0.0020000
   54.86   90.48   91.98   0.0020000
   12.31  124.34   47.11   0.0020000
   14.40   57.62  -50.43   0.0020000
  137.54    8.20   35.37   0.0020000
   74.00   19.25   44.70   0.0020000
   95.03   86.59  176.75   0.0020000
   29.58  126.39 -134.87   0.0020000
  -52.05   90.96   -0.51   0.0020000
 -173.88  141.14 -135.12   0.0020000
  125.04  129.09  134.95   0.0020000
   74.48   65.09  -62.45   0.0020000
  100.27  123.49  -48.37   0.0020000
 -176.00   83.99   83.41   0.0020000
   77.01   55.88  -42.60   0.0020000
  179.97   89.40   89.36   0.0020000
  130.80   56.62   41.02   0.0020000
  173.42  130.60  134.88   0.0020000
   40.29   90.30   90.01   0.0020000
  125.29  115.07  -61.93   0.0020000
   22.06    8.92   41.80   0.0020000
  -35.40   54.59  135.00   0.0020000
    1.01  124.38 -132.94   0.0020000
  -20.79   68.20 -113.66   0.0020000
   16.64   39.46 -134.90   0.0020000
   61.17  117.19   59.17   0.0020000
  -80.56  125.06  134.69   0.0020000
 -139.88   58.96 -143.09   0.0020000
  115.31  107.37 -108.24   0.0020000
  126.87  125.16  -44.55   0.0020000
   74.64   58.05   38.53   0.0020000
  -72.51   49.84  -45.03   0.0020000
 -143.51  114.23   26.69   0.0020000
   -0.21  148.82  -44.75   0.0020000
   29.15    8.24  -45.18   0.0020000
   12.80   90.46   90.11   0.0020000
   68.82   72.75  162.44   0.0020000
  -91.09   55.77  137.00   0.0020000
 -149.33  143.91   44.94   0.0020000
  107.99  138.31   44.90   0.0020000
   88.84   89.85  -89.74   0.0020000
 -167.67  126.66  -45.13   0.0020000
 -160.36   54.65 -134.95   0.0020000
  -39.52  176.62 -114.36   0.0020000
    7.95   88.42    0.93   0.0020000
 -124.18  116.09  119.18   0.0020000
   43.06   91.27  -91.56   0.0020000
  -93.00   55.59  -47.33   0.0020000
 -152.35  122.62 -140.46   0.0020000
  -92.79  122.77  -39.99   0.0020000
  -81.51   83.48   85.45   0.0020000
  164.65   65.67  153.05   0.0020000
  -74.34   85.73    4.68   0.0020000
   30.53  121.13  142.98   0.0020000
  -45.22  142.25  134.95   0.0020000
  143.75  129.46  134.72   0.0020000
 -176.85   86.22   90.74   0.0020000
   91.66   31.21   45.06   0.0020000
 -155.12   97.37   82.79   0.0020000
  147.80  123.81   42.32   0.0020000
  137.21   59.47  125.99   0.0020000
   94.83   90.30   92.29   0.0020000
   29.36   90.07  -89.93   0.0020000
   87.81   56.22  132.09   0.0020000
 -169.53  125.07   45.68   0.0020000
  -51.19  124.95  -44.73   0.0020000
   62.81   70.04   21.23   0.0020000
 -119.46   63.54   60.02   0.0020000
  -99.97   82.24  -98.23   0.0020000
  100.39  145.25  135.03   0.0020000
  -94.25  127.89  -45.35   0.0020000
   46.67  145.07   45.26   0.0020000
  158.71   90.98   88.50   0.0020000
  173.92   83.02 -171.31   0.0020000
   22.46  118.21   57.66   0.0020000
  116.10   68.04 -156.64   0.0020000
 -116.16  120.41   35.77   0.0020000
 -138.04  125.77 -135.19   0.0020000
   84.62   61.33   57.08   0.0020000
   50.44  124.99   44.89   0.0020000
  -31.84   38.48  135.16   0.0020000
   98.81    1.26  143.67   0.0020000
  103.80   89.99  179.64   0.0020000
  119.70   58.82  142.93   0.0020000
  -35.61  116.84 -120.29   0.0020000
  -64.52  166.66  -44.48   0.0020000
 -178.36    3.51 -173.90   0.0020000
 -102.34   92.99   -5.57   0.0020000
  -79.83  125.66   43.94   0.0020000
  139.76  115.48  -28.66   0.0020000
  165.57  124.79  134.63   0.0020000
 -154.07  115.79 -151.12   0.0020000
 -115.61  116.37  -60.45   0.0020000
  109.62   81.95  -82.61   0.0020000
    3.53   52.93   45.69   0.0020000
  114.56   89.42 -179.04   0.0020000
 -130.62  117.21  120.82   0.0020000
 -100.86   55.17 -134.33   0.0020000
  126.49  122.37  129.48   0.0020000
  116.04   55.47   42.68   0.0020000
  166.55   62.96 -149.38   0.0020000
   35.77  115.19   61.99   0.0020000
 -159.72  116.02 -150.76   0.0020000
  143.95   69.95  -68.70   0.0020000
 -150.13   63.26  -59.82   0.0020000
  143.07   54.51  -45.25   0.0020000
  -77.22  126.38  -44.84   0.0020000
  -78.05   89.99   89.50   0.0020000
  -57.81   71.47  160.34   0.0020000
   72.49   91.77    0.16   0.0020000
  174.02  175.07 -145.35   0.0020000
   24.66  178.62   66.39   0.0020000
   80.45  141.09 -134.88   0.0020000
 -117.67   57.44   39.42   0.0020000
   61.85  161.69  136.18   0.0020000
   25.00  125.23   44.60   0.0020000
   21.39  122.06 -128.70   0.0020000
   98.10   86.98  -92.77   0.0020000
  -30.86   94.45   -4.11   0.0020000
   43.33   65.03  -62.18   0.0020000
   98.92  155.11  -44.69   0.0020000
 -100.43   93.70    0.43   0.0020000
   99.07   11.65   46.31   0.0020000
  -65.98  125.27  -45.52   0.0020000
  -74.98   60.16 -125.05   0.0020000
  168.73   27.93   44.84   0.0020000
  -54.31  143.62 -135.07   0.0020000
   25.36   89.37  179.57   0.0020000
  176.68  179.43    0.00   0.0020000
  104.82   78.24  -77.29   0.0020000
   22.69  124.88 -135.10   0.0020000
   -4.15   33.62 -134.82   0.0020000
   15.16   67.29 -155.04   0.0020000
 -152.81   71.02  159.70   0.0020000
   72.40  141.70  -44.84   0.0020000
 -159.26   88.58    2.56   0.0020000
 -167.72   55.50 -136.54   0.0020000
  -32.58  128.06  -45.01   0.0020000
  -45.11   89.52  179.56   0.0020000
  132.28   64.58 -151.76   0.0020000
  -30.06   95.30 -177.52   0.0020000
  -20.47   69.03   22.77   0.0020000
 -140.12   42.98 -135.18   0.0020000
 -147.97   89.91  -90.15   0.0020000
  -71.03   88.43  -91.10   0.0020000
  -10.88   83.60    6.76   0.0020000
  157.91  178.83   78.62   0.0020000
  138.93   57.22   50.03   0.0020000
  167.64  140.91  134.85   0.0020000
 -155.17   91.01   91.45   0.0020000
  165.26  100.00 -100.37   0.0020000
 -111.40  100.02  169.73   0.0020000
   60.90   75.75 -104.60   0.0020000
 -133.48   90.06 -179.28   0.0020000
   21.87   88.83   -0.24   0.0020000
   57.89   64.98 -117.60   0.0020000
  -10.86  137.60   45.08   0.0020000
  -50.94  176.94  -75.66   0.0020000
  -34.98   89.26  -89.98   0.0020000
  -66.03  118.70   56.97   0.0020000
 -122.25  115.64 -151.47   0.0020000
  112.16  127.83 -135.04   0.0020000
 -113.87  124.82   45.85   0.0020000
  -76.71   92.38  179.14   0.0020000
  -96.47   91.80   90.34   0.0020000
  119.48   88.16  -89.74   0.0020000
  -93.98   80.10 -170.47   0.0020000
  -37.77   83.60  175.71   0.0020000
   -2.79   54.43  134.72   0.0020000
  140.33   43.08   44.99   0.0020000
  -49.75  147.84 -135.33   0.0020000
   31.08  121.35   37.69   0.0020000
   19.73  127.25  -44.93   0.0020000
  119.16  124.49 -134.26   0.0020000
 -121.97   79.23 -169.20   0.0020000
  -86.26   89.63  -88.59   0.0020000
  -48.17  136.74   44.99   0.0020000
  122.95   47.16  134.94   0.0020000
 -147.44  145.46  134.96   0.0020000
  -20.29   53.49  -45.00   0.0020000
    9.01  157.07   45.07   0.0020000
  -91.40  176.95   10.83   0.0020000
 -152.50   97.98  -80.38   0.0020000
  -58.22  115.49 -118.31   0.0020000
  -43.63  124.63  133.91   0.0020000
 -174.18  136.33 -135.09   0.0020000
 -113.62  121.52  -52.35   0.0020000
  -82.09  121.67  127.97   0.0020000
  -90.87  125.18  134.82   0.0020000
    7.90  125.23  -45.86   0.0020000
 -124.45  121.10  -36.96   0.0020000
 -168.80  113.91   26.37   0.0020000
  101.72  146.81  135.03   0.0020000
   48.66  125.11   45.19   0.0020000
 -110.43  125.30  -45.46   0.0020000
  153.31   55.05  -44.70   0.0020000
 -101.98  129.11 -135.11   0.0020000
   74.98   86.47   91.69   0.0020000
 -108.30  176.02 -146.03   0.0020000
  -99.94  124.92  -45.02   0.0020000
   60.51  113.28  115.61   0.0020000
  146.54   63.90   60.71   0.0020000
  -31.79  118.28 -147.50   0.0020000
  -16.34   11.11 -134.50   0.0020000
  -81.90  125.52   45.50   0.0020000
   15.82   51.55  135.11   0.0020000
   62.95   64.02 -150.89   0.0020000
  -75.41   63.88   29.35   0.0020000
  177.65  176.53  -54.08   0.0020000
  -19.13   55.69  136.95   0.0020000
  139.11  117.15 -149.08   0.0020000
  -95.20   61.84  147.53   0.0020000
 -143.72  143.85  134.95   0.0020000
 -154.39  122.75  140.30   0.0020000
   28.76   77.54  -12.54   0.0020000
   21.91   45.63  135.07   0.0020000
    0.69   33.18   45.17   0.0020000
 -155.41   93.55    0.81   0.0020000
  -87.16  179.59    0.00   0.0020000
  -37.94   94.08  -95.62   0.0020000
  -50.72   89.57  179.97   0.0020000
 -120.63   84.77  174.75   0.0020000
  168.39  111.26 -157.03   0.0020000
  -97.16   90.31   89.88   0.0020000
   38.50  120.15  125.63   0.0020000
  -52.67  124.76  134.44   0.0020000
 -179.36   54.88  133.75   0.0020000
 -171.77  125.33  135.80   0.0020000
 -149.96   46.34 -135.26   0.0020000
   60.52   95.63 -174.21   0.0020000
  -16.08   85.95   85.21   0.0020000
 -111.02   63.40   59.84   0.0020000
  -50.68   69.57 -158.02   0.0020000
 -171.55   90.67    2.23   0.0020000
   29.16  143.57   45.23   0.0020000
  107.75   89.33  -91.03   0.0020000
  -40.29   86.71  175.80   0.0020000
  107.96  125.59 -135.06   0.0020000
  -11.67    2.73 -179.10   0.0020000
  -36.27   90.03  -90.61   0.0020000
    4.71  127.42  134.87   0.0020000
   19.81  117.89   32.11   0.0020000
  107.32   89.33   -0.47   0.0020000
  173.26   66.91   25.20   0.0020000
  -57.14  114.46   63.11   0.0020000
   43.77   90.46  -89.58   0.0020000
   98.37  176.24   53.82   0.0020000
  -75.70   36.24  -44.92   0.0020000
   21.72  110.24   68.40   0.0020000
 -111.31   87.64   91.01   0.0020000
   10.49  140.93  135.15   0.0020000
   77.83  107.33 -161.76   0.0020000
  -24.88  115.88 -118.94   0.0020000
  169.47  122.66  -40.11   0.0020000
   87.97   23.67   44.88   0.0020000
   75.08  121.06 -142.84   0.0020000
   99.35   54.35   45.39   0.0020000
   35.75  171.96   39.49   0.0020000
  104.11  113.93   26.38   0.0020000
 -170.40  127.15 -135.32   0.0020000
   74.00   88.99    0.39   0.0020000
 -139.59  148.11   44.95   0.0020000
   49.11   56.22 -138.04   0.0020000
 -141.40  124.89   44.11   0.0020000
  116.66  126.02 -134.44   0.0020000
 -114.23  120.97   52.85   0.0020000
  -30.91  125.39  134.97   0.0020000
   93.98   90.97  -90.90   0.0020000
  105.84    9.03 -137.01   0.0020000
 -104.05   90.15  179.79   0.0020000
   10.13  104.91  -15.47   0.0020000
  -93.64   56.10   47.74   0.0020000
 -140.08  117.77   31.70   0.0020000
 -103.36   38.21 -135.15   0.0020000
  153.22   89.69   90.51   0.0020000
  -54.47   92.09   87.93   0.0020000
  158.43   98.28  172.60   0.0020000
 -156.76  119.92  -54.91   0.0020000
  130.18   62.09 -148.16   0.0020000
  159.39  174.61  -12.52   0.0020000
   22.52   91.08  -94.24   0.0020000
  118.47   55.74  135.52   0.0020000
  -18.25  177.48   33.45   0.0020000
  -50.12   91.76 -178.48   0.0020000
  113.94  141.72  -45.04   0.0020000
  129.36   56.03  138.11   0.0020000
 -123.83   55.63  -46.95   0.0020000
  -98.20    6.92  -51.15   0.0020000
   10.58  108.13  -71.05   0.0020000
   67.08   88.34  -89.37   0.0020000
 -115.08  147.84 -135.01   0.0020000
  -14.79   60.02  -54.57   0.0020000
   52.30   38.50  -44.96   0.0020000
  -37.55   65.70   63.11   0.0020000
 -101.76   66.22  -63.95   0.0020000
   22.84  126.19  134.91   0.0020000
 -177.60  140.16  134.88   0.0020000
  163.85   40.41  134.94   0.0020000
  -96.61  122.43  -39.30   0.0020000
   35.67   90.07  179.88   0.0020000
    6.97  124.39  -44.19   0.0020000
   88.71   54.55 -134.98   0.0020000
  172.78  133.14  134.90   0.0020000
  118.08  110.33  111.77   0.0020000
  134.06  166.14  134.89   0.0020000
  129.68   92.54  -85.30   0.0020000
 -122.80   92.97  -86.55   0.0020000
  145.65   54.06  135.20   0.0020000
   38.08   85.64   85.58   0.0020000
 -170.27  131.37 -135.07   0.0020000
  -67.64  131.37  -45.13   0.0020000
 -170.91   55.53 -133.11   0.0020000
   77.69   54.20   44.76   0.0020000
   70.53   59.82  -54.52   0.0020000
   43.30   18.65  -45.25   0.0020000
 -163.24   31.53  134.69   0.0020000
 -165.51   94.57    5.21   0.0020000
 -129.48   40.03  -45.20   0.0020000
   56.67   64.37 -151.36   0.0020000
 -143.24  121.92  -51.37   0.0020000
 -172.37   98.46  -95.96   0.0020000
 -119.25  117.36 -149.02   0.0020000
 -115.74   62.49  148.50   0.0020000
  -87.16   57.40   49.90   0.0020000
 -161.78  119.27   55.73   0.0020000
  124.27  143.22  -45.11   0.0020000
  -42.01   64.88 -118.02   0.0020000
    6.47   89.96  -90.49   0.0020000
  135.72  174.15  -84.34   0.0020000
  -15.59   58.65 -142.30   0.0020000
  -69.10  114.91   27.44   0.0020000
  -52.75   67.34 -155.21   0.0020000
  154.83   51.86 -135.14   0.0020000
  123.89  179.61    0.00   0.0020000
   63.72  126.72  135.19   0.0020000
  109.49   89.84 -179.27   0.0020000
    8.82  124.72 -136.40   0.0020000
  113.00  132.82 -134.95   0.0020000
   -7.21   58.02   51.32   0.0020000
 -107.63  112.52  155.63   0.0020000
 -156.87  110.50  -22.01   0.0020000
 -160.05  117.05  -59.30   0.0020000
  -82.47  146.05  134.94   0.0020000
    7.11   64.13   29.23   0.0020000
  175.36  110.73  112.28   0.0020000
   62.35   57.76 -140.92   0.0020000
 -173.53  137.69 -135.13   0.0020000
  -49.88   36.63 -134.80   0.0020000
  156.13  116.12  -29.61   0.0020000
   29.89    1.17 -135.72   0.0020000
   60.75   54.82  134.82   0.0020000
 -110.28   45.68  -44.86   0.0020000
  -76.62   59.17  143.26   0.0020000
 -146.30   89.39    1.53   0.0020000
   94.83   99.51   99.52   0.0020000
   53.55  112.45  -24.34   0.0020000
   -6.12   61.71   32.82   0.0020000
    0.60  118.86  123.54   0.0020000
   57.79  179.06 -134.96   0.0020000
  -67.06  133.16  134.94   0.0020000
  170.72    4.13 -148.02   0.0020000
   86.33  112.67  -65.27   0.0020000
  -69.03   96.22  174.09   0.0020000
   99.17   41.44  134.97   0.0020000
 -166.25    8.93  -44.55   0.0020000
   70.27  124.73   45.60   0.0020000
  115.69   41.99   45.03   0.0020000
  169.08  114.27 -153.12   0.0020000
 -165.51   36.61 -135.18   0.0020000
  122.04  122.16 -129.11   0.0020000
  -94.44   54.84  -45.28   0.0020000
 -105.65   64.51  118.40   0.0020000
  155.20   87.09   86.68   0.0020000
  -70.04   61.56 -147.13   0.0020000
   34.21  115.01  118.01   0.0020000
 -167.27   64.39   61.19   0.0020000
   -3.77  110.50  -21.94   0.0020000
  -11.63  129.77   45.07   0.0020000
   43.86   56.60  131.11   0.0020000
    9.43   93.96   90.73   0.0020000
 -151.24    1.72 -138.41   0.0020000
  -44.95   61.99  147.73   0.0020000
  -34.51   62.14   32.04   0.0020000
    4.69  137.87  135.14   0.0020000
 -126.80  127.15  -45.05   0.0020000
  152.66    7.00  133.29   0.0020000
  -36.06  115.49 -118.35   0.0020000
   52.06  121.38 -127.57   0.0020000
 -129.72  115.56  -61.54   0.0020000
   29.25  170.36  133.66   0.0020000
  -62.24  129.88   44.83   0.0020000
  -74.65   62.63   31.22   0.0020000
 -125.34  140.01  -45.05   0.0020000
 -164.00   50.15 -135.11   0.0020000
    5.43   55.50  136.51   0.0020000
   36.81   89.31    0.19   0.0020000
 -160.89  117.59 -121.67   0.0020000
   66.04   43.09  -44.84   0.0020000
  135.71    5.04 -137.91   0.0020000
  112.26   89.31 -179.27   0.0020000
 -103.44   51.46  134.91   0.0020000
  -99.55   89.01  178.68   0.0020000
  112.21  117.50  121.45   0.0020000
  148.02  170.70 -134.74   0.0020000
 -126.03   94.72    4.08   0.0020000
 -135.05   84.57   84.78   0.0020000
   53.96   64.91   62.23   0.0020000
  153.37  176.48  -43.66   0.0020000
 -168.80  121.57  -38.83   0.0020000
  -56.85   96.19    0.37   0.0020000
  105.23   88.69   -1.31   0.0020000
   27.46  124.31   47.01   0.0020000
   -8.14  125.07   45.48   0.0020000
 -124.52   94.06  -85.11   0.0020000
