TEXTURE AT STRAIN =    1.0000
   0.616   2.692   0.594  <-- length of average ellipsoid axes for phase
   90.05   90.00   -0.00  <-- Euler angles of average ellipsoid axes for phase
B       500
  107.57  124.49   43.62   0.0020000
 -117.45   40.73   44.84   0.0020000
  167.75   36.67   44.97   0.0020000
  147.00   64.29   28.74   0.0020000
  144.39   84.36    5.27   0.0020000
 -106.62    0.00    0.00   0.0020000
   13.23   63.64  -29.78   0.0020000
 -173.19  174.88  -35.24   0.0020000
  -48.21   55.02  134.70   0.0020000
  -66.06  127.51 -135.08   0.0020000
  -14.88  167.04  -45.36   0.0020000
  -43.27  180.00    0.00   0.0020000
   40.98   55.37   44.01   0.0020000
   25.91  115.07  152.16   0.0020000
   53.28  116.01  -29.10   0.0020000
  -89.46   88.04  178.39   0.0020000
  121.26    1.25 -177.44   0.0020000
   85.68   67.17   24.72   0.0020000
   77.78   58.22 -141.79   0.0020000
  -54.03   19.66  135.81   0.0020000
 -141.53  120.46  -36.08   0.0020000
   -8.32  144.97 -134.93   0.0020000
  -77.10    1.96   46.98   0.0020000
  179.41   37.53 -135.10   0.0020000
  129.35   82.21   81.19   0.0020000
  111.38  117.58  -58.42   0.0020000
  -63.44   90.13  -89.45   0.0020000
   -7.17   67.22  155.09   0.0020000
  -86.13   90.02  -90.93   0.0020000
  -38.19  125.24  -44.30   0.0020000
  118.70   81.62   81.33   0.0020000
   19.68   53.58  -44.84   0.0020000
 -178.84  123.22  130.87   0.0020000
  -84.61   69.32 -112.19   0.0020000
  -42.46  126.71 -134.92   0.0020000
   32.54   58.71 -127.34   0.0020000
   22.51  133.86 -134.88   0.0020000
 -114.61   73.42 -163.07   0.0020000
 -122.93  113.66  115.85   0.0020000
   27.92   86.22   86.81   0.0020000
 -133.12  125.90   45.28   0.0020000
  114.53   88.63   91.08   0.0020000
  162.01   68.89 -157.33   0.0020000
  -60.21   54.48  134.89   0.0020000
  168.60   63.53 -119.90   0.0020000
 -153.69  101.42 -165.87   0.0020000
 -103.67   56.47   40.72   0.0020000
  129.79   56.09  132.47   0.0020000
  -49.96   55.72 -137.67   0.0020000
  -92.43   41.14 -135.15   0.0020000
  -96.57   21.69  -45.37   0.0020000
  -58.87  102.36  167.36   0.0020000
   37.45  125.03 -135.02   0.0020000
  166.70  159.53  -45.27   0.0020000
   70.79   54.78 -134.91   0.0020000
  -94.77  115.06  -27.73   0.0020000
   79.68  117.01  -59.28   0.0020000
  -26.40   50.98   44.86   0.0020000
  -86.69    0.00    0.00   0.0020000
   46.71   90.21   91.97   0.0020000
  170.81    0.98  -23.45   0.0020000
  -17.50  116.59  150.02   0.0020000
 -103.33   55.38 -134.52   0.0020000
  174.16  178.28  -57.32   0.0020000
  -53.07   55.56 -135.28   0.0020000
  164.74   54.89 -135.51   0.0020000
   19.93  141.34 -134.82   0.0020000
   41.06  125.25 -135.15   0.0020000
  -93.86   29.92   45.00   0.0020000
 -134.33   56.23 -138.09   0.0020000
   26.12   67.45   24.73   0.0020000
   -4.13   95.58  174.52   0.0020000
  113.69    6.83  136.05   0.0020000
 -117.67   75.62  -74.63   0.0020000
   63.32  174.98  130.02   0.0020000
  -57.23  178.82   26.11   0.0020000
    8.92  142.43 -134.87   0.0020000
  164.29   51.56   44.94   0.0020000
  134.73   81.98   82.66   0.0020000
    4.74  138.48   45.11   0.0020000
  178.89   65.50  152.77   0.0020000
   66.28    2.34  175.65   0.0020000
  -30.45  149.12  134.91   0.0020000
  -48.88  109.86 -158.99   0.0020000
   88.04    0.00    0.00   0.0020000
  153.95   75.34 -164.97   0.0020000
  178.76   60.70  145.66   0.0020000
   54.88   90.49   92.06   0.0020000
   11.92  124.70   46.44   0.0020000
   13.86   56.94  -49.15   0.0020000
  138.84    8.05   34.00   0.0020000
   74.19   17.33   44.46   0.0020000
   95.02   86.71  176.89   0.0020000
   29.62  126.08 -134.87   0.0020000
  -52.04   90.99   -0.53   0.0020000
 -173.90  140.75 -135.10   0.0020000
  125.00  127.91  134.96   0.0020000
   74.47   65.12  -62.47   0.0020000
  100.82  124.02  -47.28   0.0020000
 -175.99   84.39   83.71   0.0020000
   77.22   55.59  -43.24   0.0020000
  179.97   89.38   89.34   0.0020000
  130.09   56.04   42.13   0.0020000
  173.27  129.40  134.88   0.0020000
   40.29   90.31   90.01   0.0020000
  125.26  115.29  -61.58   0.0020000
   22.76    8.63   41.04   0.0020000
  -35.41   54.64  134.98   0.0020000
    0.62  124.72 -133.58   0.0020000
  -20.96   68.69 -113.09   0.0020000
   16.63   39.87 -134.91   0.0020000
   61.00  117.61   58.57   0.0020000
  -80.58  125.09  134.76   0.0020000
 -140.71   58.01 -141.47   0.0020000
  115.78  105.97 -106.62   0.0020000
  126.78  125.18  -44.60   0.0020000
   73.81   57.17   40.17   0.0020000
  -72.43   51.31  -45.06   0.0020000
 -143.58  114.15   26.61   0.0020000
   -0.18  148.90  -44.74   0.0020000
   29.27    7.78  -45.31   0.0020000
   12.80   90.49   90.12   0.0020000
   68.64   73.15  163.03   0.0020000
  -90.70   55.46  136.36   0.0020000
 -149.28  143.94   44.95   0.0020000
  107.81  137.58   44.90   0.0020000
   88.84   89.84  -89.72   0.0020000
 -167.78  126.25  -45.14   0.0020000
 -160.35   54.64 -134.96   0.0020000
  -38.05  176.60 -112.83   0.0020000
    7.98   88.39    0.90   0.0020000
 -124.14  116.21  119.38   0.0020000
   43.04   91.25  -91.55   0.0020000
  -93.43   55.36  -46.94   0.0020000
 -151.54  123.20 -139.40   0.0020000
  -93.58  123.53  -41.49   0.0020000
  -81.62   83.54   85.77   0.0020000
  164.63   65.75  153.16   0.0020000
  -74.36   85.90    4.56   0.0020000
   29.69  121.95  141.59   0.0020000
  -45.13  142.06  134.92   0.0020000
  143.53  128.62  134.70   0.0020000
 -176.81   86.10   90.69   0.0020000
   91.68   30.24   45.10   0.0020000
 -154.98   96.80   83.47   0.0020000
  148.10  124.19   43.12   0.0020000
  136.46   58.75  127.20   0.0020000
   94.85   90.27   92.37   0.0020000
   29.36   90.07  -89.93   0.0020000
   87.57   55.87  132.87   0.0020000
 -169.72  125.16   45.52   0.0020000
  -51.17  124.99  -44.78   0.0020000
   63.35   71.31   19.71   0.0020000
 -119.23   63.28   59.66   0.0020000
  -99.97   82.81  -97.74   0.0020000
  100.39  145.49  135.05   0.0020000
  -94.54  127.29  -45.39   0.0020000
   46.71  145.26   45.27   0.0020000
  158.69   90.98   88.47   0.0020000
  173.87   83.48 -171.46   0.0020000
   21.94  118.74   56.87   0.0020000
  116.03   67.93 -156.52   0.0020000
 -115.52  121.18   37.09   0.0020000
 -138.12  125.63 -135.21   0.0020000
   85.12   60.68   56.04   0.0020000
   50.42  125.03   44.92   0.0020000
  -31.77   38.81  135.13   0.0020000
   98.25    1.27  144.24   0.0020000
  103.80   89.99  179.62   0.0020000
  120.49   57.90  141.31   0.0020000
  -35.91  117.14 -120.76   0.0020000
  -64.28  167.93  -44.18   0.0020000
 -178.69    3.64 -173.58   0.0020000
 -102.41   92.79   -5.63   0.0020000
  -79.81  125.63   43.99   0.0020000
  139.76  115.58  -28.79   0.0020000
  165.54  124.85  134.74   0.0020000
 -153.93  115.89 -150.96   0.0020000
 -115.41  116.58  -60.15   0.0020000
  109.71   82.19  -82.97   0.0020000
    3.33   53.21   45.71   0.0020000
  114.55   89.40 -179.00   0.0020000
 -130.40  117.55  121.33   0.0020000
 -100.80   55.08 -134.54   0.0020000
  127.34  123.23  131.09   0.0020000
  115.62   55.27   43.06   0.0020000
  166.29   62.58 -148.82   0.0020000
   35.69  115.26   61.92   0.0020000
 -159.57  116.15 -150.55   0.0020000
  144.30   70.93  -69.85   0.0020000
 -150.31   62.96  -59.40   0.0020000
  143.09   54.54  -45.24   0.0020000
  -77.02  126.11  -44.83   0.0020000
  -78.05   89.99   89.48   0.0020000
  -58.22   72.82  161.86   0.0020000
   72.49   91.85    0.17   0.0020000
  173.21  175.08 -146.21   0.0020000
   24.82  178.57   66.57   0.0020000
   80.45  140.77 -134.88   0.0020000
 -118.48   56.82   40.48   0.0020000
   62.34  163.22  136.73   0.0020000
   25.12  125.29   44.69   0.0020000
   20.78  122.81 -130.08   0.0020000
   98.08   87.08  -92.66   0.0020000
  -30.82   94.33   -3.94   0.0020000
   43.29   65.04  -62.18   0.0020000
   99.11  157.15  -44.44   0.0020000
 -100.44   93.83    0.42   0.0020000
   98.50   10.74   46.94   0.0020000
  -65.85  125.30  -45.43   0.0020000
  -74.29   59.51 -126.13   0.0020000
  168.72   26.88   44.81   0.0020000
  -54.33  143.62 -135.10   0.0020000
   25.36   89.35  179.55   0.0020000
  176.68  180.00    0.00   0.0020000
  104.85   78.86  -77.70   0.0020000
   22.68  124.94 -135.08   0.0020000
   -4.16   33.28 -134.85   0.0020000
   15.31   67.62 -155.44   0.0020000
 -153.29   72.13  161.04   0.0020000
   72.32  141.41  -44.83   0.0020000
 -159.31   88.68    2.57   0.0020000
 -167.78   55.30 -136.12   0.0020000
  -32.69  127.27  -45.02   0.0020000
  -45.11   89.51  179.55   0.0020000
  132.16   64.52 -151.66   0.0020000
  -30.16   95.36 -177.75   0.0020000
  -20.17   69.75   21.89   0.0020000
 -140.19   44.09 -135.16   0.0020000
 -147.97   89.90  -90.16   0.0020000
  -71.05   88.42  -91.07   0.0020000
  -10.85   84.03    6.37   0.0020000
  158.28  178.78   79.00   0.0020000
  139.78   56.41   48.54   0.0020000
  167.62  140.48  134.88   0.0020000
 -155.15   91.03   91.50   0.0020000
  165.41   99.14  -99.49   0.0020000
 -111.29   98.98  170.73   0.0020000
   60.60   77.07 -103.19   0.0020000
 -133.48   90.07 -179.25   0.0020000
   21.86   88.78   -0.26   0.0020000
   58.04   64.85 -117.76   0.0020000
  -10.88  136.55   45.07   0.0020000
  -50.95  176.82  -75.67   0.0020000
  -34.98   89.23  -89.98   0.0020000
  -66.48  119.35   55.90   0.0020000
 -122.12  115.73 -151.33   0.0020000
  112.09  127.00 -135.03   0.0020000
 -114.00  124.94   45.53   0.0020000
  -76.67   92.45  179.15   0.0020000
  -96.48   91.87   90.33   0.0020000
  119.49   88.08  -89.72   0.0020000
  -93.82   80.58 -171.14   0.0020000
  -37.89   83.65  176.06   0.0020000
   -2.77   54.47  134.74   0.0020000
  140.34   44.28   45.00   0.0020000
  -49.87  147.82 -135.43   0.0020000
   31.70  122.11   39.01   0.0020000
   19.64  126.65  -44.95   0.0020000
  119.19  124.56 -134.38   0.0020000
 -121.73   80.27 -170.38   0.0020000
  -86.28   89.63  -88.53   0.0020000
  -48.10  135.59   44.99   0.0020000
  123.22   48.37  134.93   0.0020000
 -147.45  145.66  134.98   0.0020000
  -20.25   53.88  -45.03   0.0020000
    8.95  158.68   44.96   0.0020000
  -92.12  176.85   10.08   0.0020000
 -152.47   97.66  -80.45   0.0020000
  -58.31  115.57 -118.44   0.0020000
  -43.59  124.77  134.22   0.0020000
 -174.14  135.17 -135.07   0.0020000
 -112.79  122.41  -50.76   0.0020000
  -81.66  122.34  129.20   0.0020000
  -90.88  125.18  134.84   0.0020000
    8.10  125.31  -45.73   0.0020000
 -125.22  121.74  -38.07   0.0020000
 -168.89  113.79   26.25   0.0020000
  101.71  147.30  135.05   0.0020000
   48.67  125.14   45.13   0.0020000
 -110.39  125.29  -45.41   0.0020000
  153.30   54.99  -44.81   0.0020000
 -102.05  127.87 -135.13   0.0020000
   75.05   86.41   91.61   0.0020000
 -110.06  176.14 -147.86   0.0020000
  -99.93  124.95  -45.05   0.0020000
   60.40  113.14  115.39   0.0020000
  146.63   63.75   60.52   0.0020000
  -31.27  118.92 -146.52   0.0020000
  -16.34   10.43 -134.52   0.0020000
  -81.91  125.48   45.45   0.0020000
   15.74   52.53  135.12   0.0020000
   62.84   63.85 -150.64   0.0020000
  -75.60   63.68   29.61   0.0020000
  176.95  176.53  -54.82   0.0020000
  -18.69   55.38  136.32   0.0020000
  139.43  117.55 -148.46   0.0020000
  -94.76   61.23  146.60   0.0020000
 -143.70  143.88  134.96   0.0020000
 -155.14  123.28  139.38   0.0020000
   28.53   78.27  -11.69   0.0020000
   21.94   46.99  135.06   0.0020000
    0.75   32.80   45.15   0.0020000
 -155.40   93.68    0.86   0.0020000
  -87.16  180.00    0.00   0.0020000
  -37.99   93.96  -95.67   0.0020000
  -50.72   89.54  179.97   0.0020000
 -120.66   84.98  174.99   0.0020000
  168.09  110.53 -157.90   0.0020000
  -97.15   90.33   89.87   0.0020000
   39.22  120.92  126.88   0.0020000
  -52.71  124.82  134.59   0.0020000
 -179.63   54.78  133.94   0.0020000
 -171.91  125.37  135.70   0.0020000
 -149.76   47.37 -135.28   0.0020000
   60.50   95.36 -174.48   0.0020000
  -16.04   86.21   85.35   0.0020000
 -110.91   63.09   59.41   0.0020000
  -50.44   70.23 -158.83   0.0020000
 -171.53   90.67    2.32   0.0020000
   29.21  143.59   45.23   0.0020000
  107.77   89.34  -91.05   0.0020000
  -40.24   86.96  175.91   0.0020000
  107.92  125.47 -135.04   0.0020000
  -11.52    2.84 -179.26   0.0020000
  -36.27   90.03  -90.64   0.0020000
    4.47  126.99  134.84   0.0020000
   20.32  118.46   32.94   0.0020000
  107.32   89.32   -0.47   0.0020000
  173.30   67.12   24.95   0.0020000
  -57.15  114.39   63.17   0.0020000
   43.77   90.49  -89.56   0.0020000
   99.77  176.36   55.27   0.0020000
  -75.79   36.36  -44.91   0.0020000
   22.17  109.29   69.57   0.0020000
 -111.27   87.59   90.95   0.0020000
   10.55  140.53  135.14   0.0020000
   77.35  105.77 -163.55   0.0020000
  -25.06  116.00 -119.14   0.0020000
  168.77  123.39  -41.46   0.0020000
   88.05   21.44   44.75   0.0020000
   75.88  121.96 -141.27   0.0020000
   99.29   54.43   45.38   0.0020000
   34.65  172.23   38.32   0.0020000
  104.06  113.82   26.23   0.0020000
 -170.62  126.77 -135.33   0.0020000
   74.01   88.95    0.40   0.0020000
 -139.54  148.74   44.96   0.0020000
   48.50   55.70 -137.00   0.0020000
 -141.34  124.99   44.33   0.0020000
  116.82  125.88 -134.42   0.0020000
 -114.47  121.48   51.85   0.0020000
  -30.89  125.39  134.99   0.0020000
   93.98   91.00  -90.92   0.0020000
  106.49    8.36 -137.74   0.0020000
 -104.05   90.16  179.78   0.0020000
   10.58  103.21  -13.62   0.0020000
  -93.09   55.71   46.99   0.0020000
 -139.88  118.16   32.33   0.0020000
 -103.35   38.48 -135.15   0.0020000
  153.21   89.67   90.53   0.0020000
  -54.47   92.10   87.92   0.0020000
  158.55   98.10  173.00   0.0020000
 -156.01  120.75  -53.52   0.0020000
  129.87   61.60 -147.39   0.0020000
  160.54  174.49  -11.32   0.0020000
   22.46   90.96  -94.34   0.0020000
  118.43   55.68  135.41   0.0020000
  -18.92  177.44   32.74   0.0020000
  -50.13   91.74 -178.52   0.0020000
  113.99  141.53  -45.02   0.0020000
  129.98   55.65  137.42   0.0020000
 -124.21   55.32  -46.34   0.0020000
  -96.92    6.58  -52.51   0.0020000
   10.40  107.76  -71.62   0.0020000
   67.11   88.29  -89.39   0.0020000
 -115.12  148.55 -135.01   0.0020000
  -15.52   59.25  -53.32   0.0020000
   52.22   38.77  -44.96   0.0020000
  -37.63   65.78   63.19   0.0020000
 -101.67   66.32  -64.13   0.0020000
   22.68  126.00  134.89   0.0020000
 -177.59  139.67  134.91   0.0020000
  163.86   41.01  134.95   0.0020000
  -97.40  123.10  -40.55   0.0020000
   35.67   90.08  179.88   0.0020000
    7.05  124.48  -44.36   0.0020000
   88.75   54.61 -134.97   0.0020000
  172.78  131.68  134.92   0.0020000
  117.75  109.39  110.66   0.0020000
  134.16  167.38  135.03   0.0020000
  129.75   92.34  -85.28   0.0020000
 -122.77   92.89  -86.58   0.0020000
  145.54   54.17  135.20   0.0020000
   38.08   85.77   85.69   0.0020000
 -170.25  129.83 -135.05   0.0020000
  -67.89  130.19  -45.17   0.0020000
 -170.46   55.26 -133.58   0.0020000
   77.81   54.31   44.78   0.0020000
   69.86   58.97  -53.05   0.0020000
   43.48   17.02  -45.48   0.0020000
 -163.20   31.33  134.66   0.0020000
 -165.48   94.36    5.10   0.0020000
 -129.49   40.66  -45.19   0.0020000
   56.69   64.29 -151.23   0.0020000
 -142.89  122.49  -50.29   0.0020000
 -172.19   98.38  -95.40   0.0020000
 -118.95  117.68 -148.53   0.0020000
 -115.49   62.03  147.82   0.0020000
  -86.85   56.86   48.83   0.0020000
 -162.17  119.90   54.70   0.0020000
  124.26  143.17  -45.09   0.0020000
  -41.97   64.84 -118.10   0.0020000
    6.48   89.95  -90.52   0.0020000
  136.83  173.94  -83.16   0.0020000
  -16.45   57.85 -140.92   0.0020000
  -69.06  114.90   27.41   0.0020000
  -52.67   67.55 -155.51   0.0020000
  154.98   52.60 -135.15   0.0020000
  123.89  180.00    0.00   0.0020000
   63.90  126.32  135.20   0.0020000
  109.49   89.83 -179.24   0.0020000
    9.18  124.93 -136.05   0.0020000
  113.27  131.59 -134.92   0.0020000
   -6.28   57.13   49.69   0.0020000
 -107.40  112.13  156.12   0.0020000
 -156.71  110.08  -21.45   0.0020000
 -159.81  117.41  -58.74   0.0020000
  -82.51  146.39  134.91   0.0020000
    7.01   63.97   29.48   0.0020000
  175.03  110.04  111.44   0.0020000
   61.51   56.89 -139.29   0.0020000
 -173.68  136.84 -135.12   0.0020000
  -49.95   36.80 -134.80   0.0020000
  155.89  116.34  -29.90   0.0020000
   30.03    1.19 -135.87   0.0020000
   60.68   54.79  134.91   0.0020000
 -110.58   46.57  -44.80   0.0020000
  -75.87   58.42  141.97   0.0020000
 -146.33   89.42    1.57   0.0020000
   94.67   98.68   98.58   0.0020000
   53.73  112.07  -23.82   0.0020000
   -6.38   61.22   33.58   0.0020000
    1.23  119.62  124.70   0.0020000
   57.70  179.05 -135.06   0.0020000
  -67.20  131.82  134.92   0.0020000
  171.59    4.16 -148.94   0.0020000
   86.20  112.38  -65.65   0.0020000
  -68.98   95.95  174.40   0.0020000
   99.42   42.30  134.96   0.0020000
 -166.46    8.49  -44.32   0.0020000
   70.31  124.80   45.45   0.0020000
  115.84   42.86   45.04   0.0020000
  169.14  114.19 -153.18   0.0020000
 -165.48   36.63 -135.17   0.0020000
  121.21  123.01 -130.64   0.0020000
  -94.50   54.83  -45.23   0.0020000
 -105.60   64.40  118.53   0.0020000
  155.22   87.23   86.77   0.0020000
  -70.48   60.91 -146.13   0.0020000
   34.22  115.04  118.03   0.0020000
 -167.09   64.27   61.04   0.0020000
   -3.42  109.56  -20.82   0.0020000
  -11.65  128.43   45.06   0.0020000
   43.15   56.09  132.06   0.0020000
    9.42   94.09   90.75   0.0020000
 -151.17    1.74 -138.48   0.0020000
  -44.80   61.50  146.96   0.0020000
  -35.01   61.68   32.69   0.0020000
    4.79  137.06  135.13   0.0020000
 -126.69  126.57  -45.05   0.0020000
  152.99    6.74  132.93   0.0020000
  -36.09  115.53 -118.43   0.0020000
   51.53  122.14 -128.90   0.0020000
 -129.65  115.65  -61.40   0.0020000
   28.75  170.92  133.09   0.0020000
  -62.50  128.87   44.79   0.0020000
  -74.92   62.17   31.89   0.0020000
 -125.47  139.39  -45.05   0.0020000
 -164.05   51.53 -135.09   0.0020000
    5.62   55.29  136.05   0.0020000
   36.81   89.29    0.19   0.0020000
 -161.32  118.07 -122.41   0.0020000
   65.72   44.08  -44.80   0.0020000
  136.17    4.88 -138.40   0.0020000
  112.26   89.29 -179.24   0.0020000
 -103.39   52.57  134.90   0.0020000
  -99.54   89.01  178.66   0.0020000
  112.50  117.95  122.14   0.0020000
  148.26  171.23 -134.46   0.0020000
 -126.08   94.64    3.91   0.0020000
 -135.11   84.74   85.02   0.0020000
   54.00   64.90   62.20   0.0020000
  153.66  176.50  -43.35   0.0020000
 -169.00  121.94  -39.66   0.0020000
  -56.95   96.36    0.16   0.0020000
  105.24   88.70   -1.30   0.0020000
   27.20  124.63   46.37   0.0020000
   -8.13  125.14   45.36   0.0020000
 -124.47   93.91  -85.15   0.0020000
