TEXTURE AT STRAIN =    1.0000
   1.645   1.645   0.364  <-- length of average ellipsoid axes for phase
    0.00    0.00    0.00  <-- Euler angles of average ellipsoid axes for phase
B       500
   91.57  127.51    3.00   0.0020000
 -157.90   44.05   89.65   0.0020000
  131.75   31.99   82.22   0.0020000
  149.13   89.99   44.11   0.0020000
  146.38   52.66    0.79   0.0020000
   39.04   20.83 -146.05   0.0020000
   10.10   89.64  -43.76   0.0020000
 -140.23  139.50   -0.79   0.0020000
  -44.43   89.83  133.89   0.0020000
 -103.52  136.46 -179.77   0.0020000
  -55.52  141.53  -87.98   0.0020000
   48.19  147.78   90.43   0.0020000
   46.16   89.54   44.36   0.0020000
   35.40  130.99 -179.79   0.0020000
   62.85  131.56   -0.10   0.0020000
  -91.13   55.28  179.23   0.0020000
  124.09   36.70  178.80   0.0020000
   94.26   46.05   -0.35   0.0020000
   94.62   46.54  179.74   0.0020000
  -95.81   43.60 -179.70   0.0020000
 -126.73  133.48   -0.01   0.0020000
   32.52  135.88  -89.78   0.0020000
  -84.68   21.40   54.96   0.0020000
 -141.16   36.44 -176.74   0.0020000
  130.90   89.98   46.75   0.0020000
  108.09   89.64  -46.40   0.0020000
  -62.38   90.36  -58.39   0.0020000
  -16.43   45.67 -179.33   0.0020000
  -86.10   90.49 -125.17   0.0020000
  -10.28  134.53    0.63   0.0020000
  120.75   90.03   49.67   0.0020000
  -16.32   43.72    0.60   0.0020000
  160.91  133.95   89.35   0.0020000
  -90.24   55.30  -91.58   0.0020000
   -4.84  136.62  -89.63   0.0020000
   15.85   46.72  -89.83   0.0020000
  -17.74  138.23 -178.61   0.0020000
 -109.82   46.12 -179.88   0.0020000
 -125.22   90.81  131.76   0.0020000
   26.42   52.23   89.11   0.0020000
 -101.35  135.43   90.24   0.0020000
  114.68   61.16   94.25   0.0020000
  169.03   51.77 -179.62   0.0020000
  -25.04   43.32   90.96   0.0020000
  157.99   46.69  -90.63   0.0020000
 -152.22   90.44 -135.45   0.0020000
  -82.03   45.37    0.45   0.0020000
  133.23   89.86  134.30   0.0020000
  -26.05   45.08 -179.30   0.0020000
  -52.32   44.64 -179.38   0.0020000
  -54.70   41.88  -89.81   0.0020000
  -60.20   90.61  139.05   0.0020000
   37.78   89.57 -135.04   0.0020000
 -152.28  142.70   -2.10   0.0020000
   74.72   88.62 -136.74   0.0020000
  -85.06  133.17    0.26   0.0020000
   69.87  130.72  -89.30   0.0020000
    8.83   44.38    0.56   0.0020000
  -78.66   27.27   -7.05   0.0020000
   46.48   90.22  128.64   0.0020000
  149.41   34.63   -1.70   0.0020000
  -12.80   90.55  139.84   0.0020000
 -104.92   90.47 -134.68   0.0020000
  144.71  145.93  -88.02   0.0020000
  -53.14   90.18 -134.72   0.0020000
  170.41   89.89 -137.29   0.0020000
  -21.01  137.91 -178.94   0.0020000
   17.74  132.33 -178.29   0.0020000
 -135.91   44.67   89.87   0.0020000
 -126.25   90.36 -137.43   0.0020000
   28.41   89.82   42.02   0.0020000
   -2.08  123.62  178.66   0.0020000
   73.19   35.80  178.79   0.0020000
 -118.38   90.52  -45.72   0.0020000
   25.62  141.45   90.06   0.0020000
  -80.68  144.89    1.59   0.0020000
  -31.42  136.32 -179.20   0.0020000
  125.13   40.85   87.51   0.0020000
  132.06   47.96   89.80   0.0020000
  -30.22  148.10    8.90   0.0020000
  169.67   46.87  179.35   0.0020000
   62.28   39.56 -179.66   0.0020000
  -71.91  137.83   90.82   0.0020000
  -55.25  129.97 -179.81   0.0020000
   49.53   19.55   38.28   0.0020000
  158.67   49.14  179.94   0.0020000
  175.41   90.23  135.04   0.0020000
   55.07   90.15  128.64   0.0020000
   31.46  131.65   89.73   0.0020000
   19.62   89.65  -45.61   0.0020000
  171.45   43.14   -0.59   0.0020000
  116.93   42.10   -0.82   0.0020000
   94.16   60.11  176.35   0.0020000
   64.96  136.16  -90.30   0.0020000
  -51.60  122.73   -1.80   0.0020000
 -133.02  141.00  -92.00   0.0020000
   87.16  136.00   89.71   0.0020000
   77.11   89.52  -47.30   0.0020000
   94.32   89.64  -46.88   0.0020000
 -174.13   89.79   50.02   0.0020000
   72.49   89.50  -44.28   0.0020000
 -178.46   73.37   76.79   0.0020000
  152.03   46.29   -0.57   0.0020000
  136.13  135.87   89.40   0.0020000
   41.10  120.35   89.87   0.0020000
  122.76   89.78  -45.54   0.0020000
   61.37   41.36    0.31   0.0020000
  -70.28   41.97  178.12   0.0020000
   21.45  132.38  -89.84   0.0020000
  -22.81   89.98 -132.35   0.0020000
  -24.21   43.13  -89.44   0.0020000
   72.00  132.50   89.83   0.0020000
  -83.59   90.47  134.51   0.0020000
 -126.58   49.96 -179.13   0.0020000
  119.32  127.12  -92.00   0.0020000
  154.94  134.78   -0.76   0.0020000
   82.69   88.35   39.82   0.0020000
  -34.05   43.39  -89.33   0.0020000
 -152.86  132.60    0.09   0.0020000
   40.55  135.14    0.18   0.0020000
   68.83   33.39  -86.76   0.0020000
   13.00  121.98   91.05   0.0020000
   62.74   45.27  179.92   0.0020000
 -111.92   47.54  179.74   0.0020000
  168.88  138.75   -0.18   0.0020000
   68.05  135.01   -0.13   0.0020000
   87.31   86.81  -63.74   0.0020000
  156.26  136.39  -90.54   0.0020000
  172.32   45.86  -91.14   0.0020000
  -15.98  139.81  -89.50   0.0020000
    9.46   53.69    0.31   0.0020000
 -126.54   90.54  133.95   0.0020000
   40.69   91.30 -121.23   0.0020000
  -68.71   45.37  -89.43   0.0020000
 -173.37  134.74  179.48   0.0020000
  -84.90   91.29  -41.01   0.0020000
  -83.75   47.14   90.47   0.0020000
  161.81   90.14  136.26   0.0020000
  -76.33   89.31   37.46   0.0020000
   47.12  133.54 -179.83   0.0020000
  -86.74  138.02   90.65   0.0020000
  107.95  135.08   89.48   0.0020000
 -176.02   48.35   89.37   0.0020000
   49.26   41.50   90.26   0.0020000
 -152.01  129.79   90.01   0.0020000
  142.63   89.94   43.92   0.0020000
  154.29   46.26   89.40   0.0020000
   95.10   89.51  129.42   0.0020000
   29.77  112.72  -86.67   0.0020000
   91.84   89.56  134.14   0.0020000
 -143.51  134.91   89.74   0.0020000
  -50.65   90.19  -44.45   0.0020000
   69.29   48.84   -0.08   0.0020000
 -123.02   90.03   47.95   0.0020000
  -98.15   90.23 -130.51   0.0020000
  141.97  136.59  179.42   0.0020000
 -129.61  135.59  -90.10   0.0020000
    5.20  138.06    0.48   0.0020000
  157.06   91.03   55.01   0.0020000
  172.22   90.19 -136.57   0.0020000
   35.62  133.53   90.32   0.0020000
  125.24   45.16  179.38   0.0020000
 -120.37   90.57   43.52   0.0020000
 -173.08  136.50  179.61   0.0020000
   79.84   89.34   47.84   0.0020000
   50.12   89.57   44.75   0.0020000
  -69.85   33.90  174.89   0.0020000
   66.24   32.58  178.11   0.0020000
  103.13   91.39  150.89   0.0020000
  105.35   47.56  179.41   0.0020000
  -31.74   90.27 -131.98   0.0020000
  -22.35  140.36    0.37   0.0020000
 -172.44   41.57  179.90   0.0020000
 -103.68   90.44  -42.78   0.0020000
 -109.26  135.30    0.16   0.0020000
  141.73   89.98  -44.51   0.0020000
  163.49   90.14  134.47   0.0020000
 -165.83  134.17  179.60   0.0020000
 -118.99   90.70  -47.55   0.0020000
  112.47   48.15  -89.96   0.0020000
  -29.19   44.85   90.70   0.0020000
  113.16   88.71 -146.05   0.0020000
 -142.86  133.40   89.99   0.0020000
 -107.27   89.96 -132.60   0.0020000
  114.98  118.50   97.09   0.0020000
  141.75   45.20   -0.68   0.0020000
  177.14   49.71 -179.74   0.0020000
   39.23   89.82   50.58   0.0020000
 -162.87   90.46 -136.87   0.0020000
  145.15   89.47  -49.59   0.0020000
 -139.00   47.20  -90.27   0.0020000
  174.58   44.86  -90.51   0.0020000
  -42.20  135.42    0.71   0.0020000
  -77.48   90.25   57.70   0.0020000
  -58.32   90.28  136.82   0.0020000
   72.73  128.63    0.12   0.0020000
  141.12  139.72 -179.73   0.0020000
   46.25  144.16   88.70   0.0020000
   39.10  136.46 -179.87   0.0020000
  -98.31   45.63    0.28   0.0020000
  102.99  136.31  179.59   0.0020000
   -1.76  134.23    0.69   0.0020000
   26.81   89.54 -133.90   0.0020000
   96.55   56.80  -91.83   0.0020000
  -29.06  126.14   -0.94   0.0020000
   46.56   89.66  -47.06   0.0020000
  140.71  136.02   -0.62   0.0020000
 -100.56  131.98    0.28   0.0020000
   57.56   41.15   90.21   0.0020000
  -93.84  135.02  -89.65   0.0020000
  -90.49   45.93  -89.63   0.0020000
 -150.08   44.15   -0.25   0.0020000
  -15.06  145.63  -93.27   0.0020000
   26.71   70.95  168.74   0.0020000
   -1.82  147.98 -179.07   0.0020000
  103.00   89.62  -46.13   0.0020000
   22.50   89.62 -134.96   0.0020000
   37.19   39.87 -178.65   0.0020000
   17.54   84.04 -153.38   0.0020000
 -158.82   48.58  179.21   0.0020000
  113.95  139.18   -0.60   0.0020000
 -160.72   90.52   38.95   0.0020000
 -162.99   90.38 -135.80   0.0020000
  -68.75  136.18  -89.35   0.0020000
  -43.05   77.60  163.96   0.0020000
  135.41   89.61 -138.11   0.0020000
  -31.04  132.80 -179.52   0.0020000
  -18.65   88.20   35.14   0.0020000
 -100.25   43.58 -179.67   0.0020000
 -146.78   72.55 -100.27   0.0020000
  -73.00   54.89  -90.07   0.0020000
  -12.90   89.23   37.70   0.0020000
  167.78  143.91   89.23   0.0020000
  121.41   46.53   89.48   0.0020000
 -151.42  138.90  178.77   0.0020000
 -153.55   91.34  125.41   0.0020000
  163.71   91.07 -126.86   0.0020000
 -113.25   90.36  140.04   0.0020000
   61.79   88.79 -127.86   0.0020000
 -134.11   90.62 -145.70   0.0020000
   21.73   53.87   -0.60   0.0020000
   46.86   45.01  -89.88   0.0020000
   29.29  137.00   89.94   0.0020000
  -63.75  139.31  -88.90   0.0020000
  -36.10   55.89  -89.53   0.0020000
  -54.44  131.34   89.29   0.0020000
 -125.46   90.81 -137.97   0.0020000
   75.00  135.81  179.81   0.0020000
 -106.26   90.91   47.66   0.0020000
  -76.01  129.34  179.74   0.0020000
  -96.70  128.55   90.25   0.0020000
  119.28   51.44  -89.61   0.0020000
  -90.94   47.47 -179.62   0.0020000
  -39.99   46.98 -179.20   0.0020000
   27.17   44.53   90.39   0.0020000
 -179.03   42.55   -0.10   0.0020000
  -91.06  135.48 -179.64   0.0020000
   26.97   89.67   43.95   0.0020000
  -17.43  136.87  -89.03   0.0020000
  120.45   89.78 -135.11   0.0020000
 -118.43   49.35  179.91   0.0020000
  -87.15   89.74  -53.23   0.0020000
   -7.91  136.55   90.54   0.0020000
  161.35   44.58   89.31   0.0020000
 -105.70  136.60 -179.84   0.0020000
   16.59   42.21  -88.77   0.0020000
  -32.19  137.30    0.90   0.0020000
 -101.42  139.21    0.12   0.0020000
 -150.37   90.49  -46.25   0.0020000
  -54.52   91.20 -129.23   0.0020000
  -47.51   90.13  134.84   0.0020000
 -134.81  136.90  -90.29   0.0020000
 -121.20   91.63  -49.43   0.0020000
  -86.09   90.39  134.53   0.0020000
  -94.10   90.87  133.97   0.0020000
  -18.78  134.72  -89.31   0.0020000
 -107.05  134.85    0.19   0.0020000
 -177.92  131.86    0.00   0.0020000
  143.37  136.68  179.43   0.0020000
   52.17   89.66   45.88   0.0020000
 -139.33  134.93  -90.10   0.0020000
  150.81   90.01  -45.00   0.0020000
 -140.44  136.87  179.75   0.0020000
   76.49   48.94   89.76   0.0020000
 -140.90  140.45  179.42   0.0020000
  -99.40   90.48  -44.76   0.0020000
   51.65  133.10   90.17   0.0020000
  143.09   90.02   46.33   0.0020000
  -36.61   90.07 -137.48   0.0020000
   17.98   28.99 -170.21   0.0020000
  -51.06  135.04   90.64   0.0020000
  -21.72   43.42 -179.44   0.0020000
   66.69   88.67 -142.78   0.0020000
  -64.35   45.78    0.63   0.0020000
  143.92  142.25  -89.28   0.0020000
  -40.14   46.87 -179.41   0.0020000
  135.03   89.85 -137.49   0.0020000
 -100.31   89.63  139.64   0.0020000
  175.07  141.99   90.79   0.0020000
 -133.99  135.10  179.87   0.0020000
   24.51   47.56   -0.04   0.0020000
   61.00   43.26   90.06   0.0020000
  -40.96   41.47   89.80   0.0020000
 -155.81  131.57    0.15   0.0020000
  -76.82  153.42    9.20   0.0020000
  -39.71   90.23 -132.03   0.0020000
  -51.92   58.70  179.93   0.0020000
 -121.89   56.93  177.52   0.0020000
  166.44   90.74 -142.67   0.0020000
  -97.50  112.68   83.68   0.0020000
   22.77  133.27   90.51   0.0020000
  -55.17   90.20  135.10   0.0020000
 -152.88   45.49   89.63   0.0020000
 -144.13  135.25  179.74   0.0020000
 -112.74   45.02 -179.87   0.0020000
   63.14   96.82 -154.98   0.0020000
  -14.12   89.87   50.00   0.0020000
 -120.82   48.96   89.25   0.0020000
  -49.79   89.81 -137.67   0.0020000
 -170.70   90.53   39.33   0.0020000
  -11.97  137.88    0.83   0.0020000
  109.76   88.99 -122.54   0.0020000
  -38.39   90.25  140.02   0.0020000
   73.58  135.74  179.92   0.0020000
  -11.49   40.29 -179.47   0.0020000
  -35.59   90.23 -123.97   0.0020000
  -29.09  135.27   90.72   0.0020000
   15.13   90.14   42.16   0.0020000
  106.52   61.50   -3.01   0.0020000
  175.65   90.18   42.32   0.0020000
  -54.77   90.36   47.62   0.0020000
   43.82  117.06  -85.55   0.0020000
  132.42  141.40   90.02   0.0020000
 -117.22   44.98    0.07   0.0020000
   28.81  132.54   90.45   0.0020000
 -109.89   50.84   89.95   0.0020000
  -30.22  137.74   91.13   0.0020000
   77.85   91.35 -145.78   0.0020000
  -21.44   90.08 -132.24   0.0020000
  174.68   90.24  -44.06   0.0020000
  131.02   42.91   -0.85   0.0020000
   67.72   90.91 -139.95   0.0020000
   68.00   44.55   89.87   0.0020000
   -1.26  137.92    0.42   0.0020000
  101.85   89.60   43.05   0.0020000
  155.33  135.40  179.32   0.0020000
   75.24   55.60    0.54   0.0020000
  178.26  137.86   -0.59   0.0020000
   69.21   46.41  179.93   0.0020000
 -147.67   90.96   42.53   0.0020000
  148.30  135.15  -90.70   0.0020000
 -110.95   90.48   45.32   0.0020000
  -60.15  135.37   90.88   0.0020000
   94.49  119.49  -93.56   0.0020000
  147.07   39.90  179.23   0.0020000
 -105.95   95.39  157.50   0.0020000
    9.65   90.21  -37.35   0.0020000
 -116.13   46.17   90.02   0.0020000
 -142.88   90.51   44.04   0.0020000
 -144.41   38.69  -91.06   0.0020000
  152.02   88.68  121.75   0.0020000
  -56.95   95.00   62.67   0.0020000
  161.03  133.04  179.33   0.0020000
 -168.46  129.04  -88.14   0.0020000
  142.96   47.26  179.72   0.0020000
  170.72  137.00   -0.67   0.0020000
   22.07   89.46 -132.19   0.0020000
  117.09   89.74  134.73   0.0020000
  -48.77  142.44    1.80   0.0020000
  -51.85  122.58 -178.56   0.0020000
  154.82  136.62   -0.65   0.0020000
  107.63   45.16  179.49   0.0020000
 -102.81   46.96  -89.70   0.0020000
  -61.52   41.20  -90.01   0.0020000
    4.36  134.31  -89.42   0.0020000
   68.53   52.59  -90.08   0.0020000
  -72.40  140.41  -89.67   0.0020000
    0.25   46.22  -89.45   0.0020000
   94.32   42.92  -90.43   0.0020000
  -46.93   47.18   90.77   0.0020000
  -93.34   46.37  -89.66   0.0020000
  -10.05  135.28   90.68   0.0020000
 -137.15  137.11  179.65   0.0020000
 -155.84   43.44   89.83   0.0020000
  -77.00  134.30    0.42   0.0020000
   33.92  101.32  164.88   0.0020000
    8.93   89.68  -44.70   0.0020000
  122.88   43.77  179.68   0.0020000
  133.84  136.61   89.56   0.0020000
  117.03   89.66  132.47   0.0020000
  175.37  141.85  178.58   0.0020000
  130.90   89.71  -48.04   0.0020000
 -120.83   91.01  -52.26   0.0020000
  114.25   44.56  179.39   0.0020000
   40.28   87.23   57.46   0.0020000
 -131.75  137.25  -90.36   0.0020000
 -105.35  135.76  -89.81   0.0020000
  165.88   45.72  -90.68   0.0020000
  110.29   44.67   -0.55   0.0020000
   83.84   48.03  -89.68   0.0020000
   85.69   41.86  -90.24   0.0020000
 -122.43   44.76   90.02   0.0020000
 -163.54   90.76   39.90   0.0020000
 -170.63   41.52   -0.76   0.0020000
   66.62   46.80  179.86   0.0020000
 -146.60   90.47  -45.45   0.0020000
 -170.54  134.20  -90.46   0.0020000
 -132.16  134.18  179.96   0.0020000
 -127.46   47.67  179.65   0.0020000
  -90.93   90.43   45.64   0.0020000
 -157.40   90.36   45.71   0.0020000
  165.19  139.88   -1.22   0.0020000
  -45.41   89.03 -125.87   0.0020000
    6.66   89.47 -123.35   0.0020000
  130.32  136.48  -90.51   0.0020000
    1.46   45.99 -179.45   0.0020000
  -71.84   90.22   41.93   0.0020000
  -51.13   89.92 -137.17   0.0020000
 -169.21   44.43  179.54   0.0020000
   28.78  151.38  -94.62   0.0020000
   98.51  135.35  179.55   0.0020000
  109.22   89.24 -145.69   0.0020000
  -15.10  134.27 -179.32   0.0020000
  150.96  135.67  -90.68   0.0020000
  -15.65   87.65   53.69   0.0020000
 -100.24  130.28  179.79   0.0020000
 -150.06  134.77   -0.29   0.0020000
 -171.04  131.80  -89.66   0.0020000
  -40.90  143.52  179.43   0.0020000
   16.96   49.34    0.59   0.0020000
  167.37  133.69   89.38   0.0020000
   76.68   49.69 -178.64   0.0020000
  147.16  135.81  179.34   0.0020000
  -91.10   44.89  -89.64   0.0020000
  159.96   90.45  -42.17   0.0020000
   62.24   26.57 -169.35   0.0020000
   84.49   47.05   90.60   0.0020000
 -147.88   45.15   -0.30   0.0020000
  -93.26   46.28 -179.68   0.0020000
 -147.73   90.57   36.93   0.0020000
   91.65  128.98   90.05   0.0020000
   55.41   89.90  -38.49   0.0020000
   -2.66   89.76   44.53   0.0020000
   -5.41   92.53  124.99   0.0020000
   60.80  159.41 -131.83   0.0020000
 -106.05  136.22   90.18   0.0020000
 -159.06   40.16 -179.55   0.0020000
   84.36   90.26  -51.71   0.0020000
  -67.14  127.04  178.85   0.0020000
  139.70   44.70   89.29   0.0020000
  153.29   37.03   -2.05   0.0020000
   72.94   89.53   45.24   0.0020000
  156.38   43.97   -0.72   0.0020000
  165.96   90.16 -138.00   0.0020000
  153.73   40.18  -91.74   0.0020000
  137.60  132.03  -91.39   0.0020000
  -66.95   45.89  -89.24   0.0020000
  -96.72   48.64   90.53   0.0020000
  157.45   89.58   53.84   0.0020000
  -60.88   53.25 -176.77   0.0020000
   32.19   89.65  133.86   0.0020000
 -170.76   90.04   47.51   0.0020000
   -2.23   89.99  -40.58   0.0020000
  -50.15  137.57    1.27   0.0020000
   64.98   45.23   89.90   0.0020000
    9.22  131.89   90.65   0.0020000
 -130.81   24.10 -159.83   0.0020000
  -48.39   90.16  135.88   0.0020000
  -21.00   45.25    0.69   0.0020000
   43.83  135.70 -179.90   0.0020000
  -89.96  136.36    0.34   0.0020000
 -167.45   36.83   91.42   0.0020000
  -24.99  133.21  -89.46   0.0020000
   56.85   89.48 -134.03   0.0020000
 -133.42   98.10  -64.03   0.0020000
  -11.33  139.77   90.75   0.0020000
  -98.98  135.66    0.27   0.0020000
  -69.88   85.82   31.91   0.0020000
  -83.16  137.85    0.35   0.0020000
  156.76   41.67  -91.79   0.0020000
   -0.08   89.69  136.49   0.0020000
   37.96   57.26    0.42   0.0020000
 -156.44   90.31 -133.19   0.0020000
   26.69   44.39    0.38   0.0020000
  174.63   36.01 -178.85   0.0020000
  109.85   84.47 -154.39   0.0020000
  -65.28   43.60   90.54   0.0020000
  -97.49   88.54  148.42   0.0020000
  108.46   89.66  132.72   0.0020000
 -171.01  142.30  -91.68   0.0020000
 -127.72  129.22    0.78   0.0020000
 -136.83   51.74   88.93   0.0020000
   43.13   45.70   90.11   0.0020000
 -168.12  146.49   -3.49   0.0020000
 -165.36   90.35  -45.09   0.0020000
  -56.31  133.74    0.48   0.0020000
  107.11   74.77  -14.65   0.0020000
   33.87   89.53   46.40   0.0020000
   -4.88   89.85   46.16   0.0020000
 -122.58   90.79  -49.65   0.0020000
