TEXTURE AT STRAIN =    1.0000
   1.645   1.645   0.364  <-- length of average ellipsoid axes for phase
   88.32    0.00    0.00  <-- Euler angles of average ellipsoid axes for phase
B       500
   96.91  122.20    5.48   0.0020000
 -157.65   43.62   89.68   0.0020000
  140.79   27.37   71.05   0.0020000
  149.02   90.03   44.04   0.0020000
  143.28   54.92    1.58   0.0020000
   32.62   21.04 -139.37   0.0020000
   10.45   89.61  -43.56   0.0020000
 -140.17  140.26   -1.06   0.0020000
  -40.87   89.03  132.06   0.0020000
 -103.70  136.83 -179.66   0.0020000
  -56.60  143.26  -87.20   0.0020000
   50.36  151.60   93.82   0.0020000
   46.33   89.50   43.98   0.0020000
   33.98  129.98  179.74   0.0020000
   61.93  130.78   -0.48   0.0020000
  -88.36   58.39  177.76   0.0020000
  124.10   34.89  179.39   0.0020000
   94.52   46.51   -0.36   0.0020000
   94.18   47.31  179.90   0.0020000
  -95.62   43.09 -179.71   0.0020000
 -127.03  132.73   -0.05   0.0020000
   32.21  136.29  -89.85   0.0020000
  -77.85   22.02   47.84   0.0020000
 -140.91   32.57 -172.66   0.0020000
  130.85   90.02   47.30   0.0020000
  108.37   89.69  -46.71   0.0020000
  -63.11   92.09  -62.41   0.0020000
  -16.52   45.91 -179.34   0.0020000
  -86.26   90.34 -123.12   0.0020000
  -10.49  134.35    0.58   0.0020000
  120.25   89.83   50.93   0.0020000
  -17.30   43.03    0.47   0.0020000
  161.04  133.53   89.39   0.0020000
  -86.45   59.34  -94.05   0.0020000
   -3.17  137.77  -90.07   0.0020000
   16.75   47.55  -90.08   0.0020000
  -19.36  139.86 -177.36   0.0020000
 -109.71   46.26 -179.82   0.0020000
 -125.74   90.96  131.07   0.0020000
   28.94   54.39   88.42   0.0020000
 -101.25  135.34   90.27   0.0020000
  113.27   68.52  100.66   0.0020000
  165.28   53.98 -178.52   0.0020000
  -22.35   41.59   91.78   0.0020000
  157.76   47.16  -90.64   0.0020000
 -152.28   90.45 -135.49   0.0020000
  -81.94   45.31    0.48   0.0020000
  133.00   89.89  134.27   0.0020000
  -26.01   45.10 -179.30   0.0020000
  -52.54   44.42 -179.35   0.0020000
  -54.83   41.15  -89.59   0.0020000
  -59.79   90.81  139.80   0.0020000
   37.54   89.59 -135.17   0.0020000
 -150.80  144.97   -3.70   0.0020000
   80.21   86.99 -139.80   0.0020000
  -84.93  132.56    0.17   0.0020000
   72.37  129.29  -88.44   0.0020000
    8.74   44.27    0.52   0.0020000
  -63.53   22.43  -22.56   0.0020000
   45.89   90.17  127.25   0.0020000
  149.08   32.32   -2.39   0.0020000
  -10.52   91.28  141.53   0.0020000
 -104.85   90.45 -134.60   0.0020000
  144.99  149.24  -85.25   0.0020000
  -53.24   90.13 -134.81   0.0020000
  174.04   89.08 -139.09   0.0020000
  -21.63  138.76 -178.48   0.0020000
   24.75  129.26 -176.15   0.0020000
 -135.94   44.36   89.93   0.0020000
 -124.19   89.79 -138.80   0.0020000
   28.55   89.66   41.26   0.0020000
   -5.92  119.38  175.88   0.0020000
   73.07   33.05  176.38   0.0020000
 -118.49   90.51  -45.95   0.0020000
   25.19  143.23   90.69   0.0020000
  -80.78  147.36    3.04   0.0020000
  -31.19  136.67 -179.20   0.0020000
  122.82   38.35   85.50   0.0020000
  132.11   48.61   89.67   0.0020000
  -22.20  152.33   19.50   0.0020000
  169.52   47.31  179.38   0.0020000
   62.40   38.63 -179.70   0.0020000
  -71.81  138.32   90.93   0.0020000
  -53.98  128.51 -179.18   0.0020000
   45.44   19.82   42.53   0.0020000
  157.70   50.04 -179.69   0.0020000
  175.60   90.25  135.27   0.0020000
   54.36   90.19  127.27   0.0020000
   26.88  129.47   88.30   0.0020000
   19.44   89.62  -45.96   0.0020000
  171.49   42.70   -0.62   0.0020000
  116.87   41.59   -0.71   0.0020000
   96.13   68.05  169.31   0.0020000
   66.59  137.30  -90.73   0.0020000
  -53.85  118.40   -4.01   0.0020000
 -131.06  143.28  -93.80   0.0020000
   86.92  136.64   89.78   0.0020000
   77.12   89.51  -47.83   0.0020000
   93.08   89.83  -47.75   0.0020000
 -174.95   89.41   51.40   0.0020000
   72.20   89.47  -43.92   0.0020000
 -178.16   73.76   75.51   0.0020000
  151.50   46.84   -0.51   0.0020000
  136.17  136.21   89.38   0.0020000
   39.71  116.37   87.95   0.0020000
  122.70   89.82  -45.56   0.0020000
   61.39   40.82    0.42   0.0020000
  -73.51   38.06  174.16   0.0020000
   17.94  130.76  -90.76   0.0020000
  -22.73   89.90 -131.96   0.0020000
  -24.00   42.61  -89.49   0.0020000
   71.82  131.97   89.66   0.0020000
  -85.69   90.61  133.47   0.0020000
 -130.66   52.56 -177.76   0.0020000
  116.15  124.64  -92.94   0.0020000
  154.20  134.52   -0.80   0.0020000
   87.09   87.28   36.90   0.0020000
  -33.50   42.62  -89.18   0.0020000
 -152.50  131.91    0.32   0.0020000
   40.42  135.39    0.12   0.0020000
   65.84   29.37  -81.29   0.0020000
   13.76  119.08   91.44   0.0020000
   62.80   45.58  179.87   0.0020000
 -109.07   48.86  179.07   0.0020000
  168.15  139.77    0.52   0.0020000
   68.16  135.24   -0.18   0.0020000
   87.03   82.86  -68.81   0.0020000
  154.85  137.27  -90.34   0.0020000
  175.61   47.43  -91.66   0.0020000
  -15.72  140.81  -89.59   0.0020000
    7.74   55.97    1.08   0.0020000
 -126.33   90.53  133.67   0.0020000
   41.13   96.48 -114.67   0.0020000
  -68.65   45.34  -89.41   0.0020000
 -173.51  134.55  179.52   0.0020000
  -81.01   92.31  -38.67   0.0020000
  -83.72   47.49   90.49   0.0020000
  162.09   90.14  136.78   0.0020000
  -73.78   88.66   35.14   0.0020000
   47.15  133.25 -179.89   0.0020000
  -86.78  138.67   91.01   0.0020000
  108.03  135.25   89.46   0.0020000
 -176.09   48.95   89.49   0.0020000
   49.20   40.93   90.11   0.0020000
 -152.86  128.35   89.68   0.0020000
  142.58   89.99   43.73   0.0020000
  154.43   46.66   89.42   0.0020000
   95.01   89.64  128.32   0.0020000
   29.92  109.17  -85.88   0.0020000
   91.79   89.58  133.92   0.0020000
 -144.08  134.53   89.77   0.0020000
  -50.44   90.17  -44.39   0.0020000
   68.54   49.93    0.33   0.0020000
 -124.11   89.73   48.92   0.0020000
  -98.72   89.94 -129.59   0.0020000
  141.73  137.04  179.36   0.0020000
 -129.49  135.57  -90.04   0.0020000
    4.97  138.85    0.86   0.0020000
  158.75   92.11   58.15   0.0020000
  172.27   90.23 -136.80   0.0020000
   35.80  133.25   90.26   0.0020000
  125.15   45.32  179.36   0.0020000
 -120.52   90.60   43.02   0.0020000
 -175.63  137.93 -179.82   0.0020000
   78.12   88.81   49.09   0.0020000
   49.48   89.60   44.47   0.0020000
  -57.11   27.09  160.00   0.0020000
   69.67   28.50  172.67   0.0020000
  102.95   93.90  155.82   0.0020000
  107.45   49.02  178.74   0.0020000
  -31.10   90.49 -131.25   0.0020000
  -21.56  141.73   -0.23   0.0020000
 -172.29   40.81  179.89   0.0020000
 -103.64   90.41  -42.32   0.0020000
 -109.12  135.18    0.21   0.0020000
  141.51   90.03  -44.16   0.0020000
  163.47   90.19  134.47   0.0020000
 -166.05  133.80  179.63   0.0020000
 -119.53   90.85  -48.25   0.0020000
  112.16   48.92  -89.83   0.0020000
  -29.22   44.78   90.70   0.0020000
  115.02   87.74 -148.93   0.0020000
 -142.85  132.78   90.15   0.0020000
 -111.95   88.68 -130.25   0.0020000
  117.28  109.10  106.25   0.0020000
  141.73   45.31   -0.68   0.0020000
  173.11   51.70 -178.54   0.0020000
   42.00   90.79   52.62   0.0020000
 -162.58   90.49 -137.24   0.0020000
  145.93   89.10  -50.53   0.0020000
 -139.03   47.64  -90.19   0.0020000
  175.67   44.36  -90.39   0.0020000
  -42.32  135.54    0.69   0.0020000
  -78.34   89.46   60.64   0.0020000
  -58.33   90.25  137.15   0.0020000
   72.84  127.48    0.06   0.0020000
  140.63  140.75 -179.57   0.0020000
   46.77  146.59   87.55   0.0020000
   39.20  137.03 -179.91   0.0020000
  -98.06   45.63    0.33   0.0020000
  102.96  136.80  179.57   0.0020000
   -0.42  133.64    0.72   0.0020000
   26.60   89.56 -133.64   0.0020000
   99.32   62.19  -95.36   0.0020000
  -32.54  123.45   -2.05   0.0020000
   46.45   89.57  -47.62   0.0020000
  140.53  136.37   -0.66   0.0020000
 -100.60  131.21    0.21   0.0020000
   57.58   40.55   90.08   0.0020000
  -93.28  134.72  -89.58   0.0020000
  -90.65   46.03  -89.60   0.0020000
 -150.28   43.76   -0.19   0.0020000
  -17.00  149.89  -99.21   0.0020000
   27.17   72.96  166.23   0.0020000
   -0.73  151.13 -177.09   0.0020000
  102.95   89.65  -46.39   0.0020000
   22.45   89.62 -135.09   0.0020000
   38.16   38.51 -177.68   0.0020000
   17.66   76.60 -160.02   0.0020000
 -158.44   49.24  179.07   0.0020000
  114.86  140.84   -1.65   0.0020000
 -160.35   90.28   37.69   0.0020000
 -162.82   90.38 -135.97   0.0020000
  -68.98  136.51  -89.29   0.0020000
  -43.03   76.13  164.20   0.0020000
  135.84   89.41 -138.76   0.0020000
  -31.02  132.31 -179.49   0.0020000
  -16.22   85.90   30.76   0.0020000
 -100.25   42.95 -179.59   0.0020000
 -146.54   74.28 -101.66   0.0020000
  -70.30   57.78  -91.44   0.0020000
  -11.13   88.58   35.38   0.0020000
  167.99  145.84   88.89   0.0020000
  122.20   47.37   89.33   0.0020000
 -150.23  140.14  177.83   0.0020000
 -155.28   91.99  122.89   0.0020000
  166.07   92.11 -123.97   0.0020000
 -112.65   90.61  141.19   0.0020000
   59.25   88.11 -125.77   0.0020000
 -133.24   90.00 -148.13   0.0020000
   23.26   56.07   -0.95   0.0020000
   46.84   45.22  -89.95   0.0020000
   29.65  137.89   89.53   0.0020000
  -63.83  140.09  -88.92   0.0020000
  -34.27   58.51  -90.50   0.0020000
  -57.90  129.45   88.24   0.0020000
 -126.22   91.01 -138.73   0.0020000
   74.68  136.42  179.84   0.0020000
 -102.10   91.96   49.91   0.0020000
  -76.73  127.96  179.53   0.0020000
  -96.81  127.02   90.16   0.0020000
  118.63   52.93  -89.62   0.0020000
  -90.87   47.85 -179.55   0.0020000
  -40.01   47.38 -179.26   0.0020000
   27.27   44.51   90.37   0.0020000
 -178.03   41.48    0.42   0.0020000
  -90.90  135.45 -179.60   0.0020000
   27.02   89.67   43.48   0.0020000
  -19.27  138.20  -88.35   0.0020000
  120.31   89.83 -134.98   0.0020000
 -118.78   50.10 -179.86   0.0020000
  -85.66   89.46  -55.28   0.0020000
   -7.85  137.11   90.49   0.0020000
  161.14   44.42   89.31   0.0020000
 -105.78  136.83 -179.79   0.0020000
   19.18   40.28  -87.27   0.0020000
  -32.19  137.75    0.90   0.0020000
 -101.28  139.87    0.24   0.0020000
 -150.38   90.49  -46.50   0.0020000
  -51.33   92.07 -127.20   0.0020000
  -47.74   90.10  134.52   0.0020000
 -134.93  137.32  -90.32   0.0020000
 -125.25   92.72  -52.04   0.0020000
  -85.81   90.38  134.28   0.0020000
  -98.59   91.93  131.60   0.0020000
  -18.80  134.63  -89.31   0.0020000
 -106.73  134.58    0.23   0.0020000
 -176.97  131.03    0.28   0.0020000
  143.18  137.14  179.36   0.0020000
   55.06   90.01   47.31   0.0020000
 -138.20  134.38  -89.92   0.0020000
  150.40   90.03  -44.64   0.0020000
 -141.20  137.53  179.89   0.0020000
   76.25   49.92   89.95   0.0020000
 -140.96  141.47  179.55   0.0020000
  -99.29   90.48  -44.70   0.0020000
   51.38  132.80   90.15   0.0020000
  143.31   90.04   46.88   0.0020000
  -37.61   90.37 -138.62   0.0020000
    2.82   24.80 -154.19   0.0020000
  -51.17  134.98   90.64   0.0020000
  -22.62   42.66 -179.61   0.0020000
   70.92   87.34 -145.79   0.0020000
  -64.24   45.91    0.63   0.0020000
  142.61  144.11  -88.65   0.0020000
  -37.91   48.06 -179.89   0.0020000
  134.81   89.94 -138.05   0.0020000
 -103.96   88.59  141.85   0.0020000
  172.75  144.59   92.87   0.0020000
 -133.92  134.93  179.93   0.0020000
   24.68   48.20   -0.17   0.0020000
   61.00   42.90   90.05   0.0020000
  -41.45   40.60   89.48   0.0020000
 -155.58  130.76    0.27   0.0020000
  -61.41  157.56   25.09   0.0020000
  -39.75   90.24 -131.59   0.0020000
  -49.79   63.18  177.10   0.0020000
 -118.84   61.24  174.76   0.0020000
  164.10   91.83 -145.12   0.0020000
  -98.42  108.15   79.41   0.0020000
   22.75  132.82   90.50   0.0020000
  -55.26   90.16  134.93   0.0020000
 -152.92   45.49   89.70   0.0020000
 -144.14  135.14  179.79   0.0020000
 -112.78   44.80 -179.82   0.0020000
   63.10  102.61 -160.01   0.0020000
  -14.30   89.64   50.90   0.0020000
 -118.62   50.20   88.48   0.0020000
  -49.65   89.62 -138.38   0.0020000
 -170.82   90.62   38.26   0.0020000
  -12.27  138.61    1.20   0.0020000
  108.49   86.26 -117.86   0.0020000
  -38.52   90.15  140.91   0.0020000
   71.78  136.91 -179.79   0.0020000
  -11.51   39.39 -179.62   0.0020000
  -35.98   89.84 -121.62   0.0020000
  -28.99  135.34   90.73   0.0020000
   13.75   90.69   40.89   0.0020000
  108.21   68.71   -9.31   0.0020000
  175.68   90.17   41.89   0.0020000
  -54.86   90.41   48.10   0.0020000
   44.94  111.12  -80.38   0.0020000
  132.27  142.97   89.39   0.0020000
 -117.18   44.75    0.13   0.0020000
   28.74  132.11   90.38   0.0020000
 -110.10   51.90   90.16   0.0020000
  -30.76  138.53   91.46   0.0020000
   74.81   93.69 -149.83   0.0020000
  -21.25   90.15 -131.71   0.0020000
  175.03   90.28  -43.48   0.0020000
  130.87   42.50   -0.78   0.0020000
   63.18   92.17 -142.88   0.0020000
   68.04   44.60   89.80   0.0020000
   -1.17  138.53    0.55   0.0020000
  102.00   89.66   42.63   0.0020000
  155.43  135.53  179.33   0.0020000
   72.87   59.04    2.18   0.0020000
  178.34  138.42   -0.40   0.0020000
   67.93   47.43 -179.84   0.0020000
 -151.71   92.00   40.47   0.0020000
  148.21  135.23  -90.71   0.0020000
 -110.98   90.48   45.42   0.0020000
  -60.96  135.74   91.10   0.0020000
   92.85  112.85  -99.14   0.0020000
  147.41   38.73  179.76   0.0020000
 -105.91   98.88  161.26   0.0020000
   11.95   91.13  -34.98   0.0020000
 -115.97   46.37   90.05   0.0020000
 -142.68   90.51   43.83   0.0020000
 -146.48   35.95  -92.96   0.0020000
  153.05   86.89  117.94   0.0020000
  -57.16  100.74   68.54   0.0020000
  161.06  132.61  179.31   0.0020000
 -162.76  125.58  -86.62   0.0020000
  142.36   48.02  179.87   0.0020000
  170.80  137.44   -0.62   0.0020000
   22.08   89.48 -131.71   0.0020000
  117.05   89.78  134.80   0.0020000
  -49.51  144.15    2.17   0.0020000
  -48.93  117.37 -174.85   0.0020000
  154.55  137.08   -0.68   0.0020000
  107.54   45.38  179.47   0.0020000
 -104.30   47.82  -89.42   0.0020000
  -61.69   40.31  -89.85   0.0020000
    4.36  134.15  -89.46   0.0020000
   67.36   54.60  -89.53   0.0020000
  -71.74  141.90  -90.58   0.0020000
    0.24   46.73  -89.41   0.0020000
   94.19   42.52  -90.42   0.0020000
  -46.98   47.64   90.66   0.0020000
  -93.08   46.57  -89.61   0.0020000
  -10.28  135.51   90.70   0.0020000
 -137.42  137.54  179.62   0.0020000
 -156.02   42.85   89.96   0.0020000
  -76.78  133.91    0.42   0.0020000
   34.00  102.51  165.47   0.0020000
    8.97   89.66  -44.78   0.0020000
  125.84   41.88 -179.29   0.0020000
  133.44  137.26   89.61   0.0020000
  117.01   89.71  132.03   0.0020000
  176.71  143.70  177.73   0.0020000
  130.84   89.71  -48.51   0.0020000
 -122.36   91.38  -54.06   0.0020000
  114.19   44.53  179.35   0.0020000
   38.72   84.52   62.01   0.0020000
 -131.00  137.99  -90.58   0.0020000
 -105.00  135.78  -89.75   0.0020000
  165.93   45.97  -90.67   0.0020000
  110.31   44.69   -0.55   0.0020000
   81.03   49.80  -88.54   0.0020000
   85.78   41.38  -90.23   0.0020000
 -122.49   44.46   90.08   0.0020000
 -163.95   90.95   38.88   0.0020000
 -171.96   40.03   -1.79   0.0020000
   66.69   47.44  179.92   0.0020000
 -146.55   90.47  -45.50   0.0020000
 -170.47  133.86  -90.44   0.0020000
 -132.47  133.75 -179.96   0.0020000
 -126.93   48.33  179.46   0.0020000
  -90.72   90.40   45.79   0.0020000
 -157.70   90.38   46.08   0.0020000
  166.74  141.45   -2.13   0.0020000
  -48.97   87.14 -122.25   0.0020000
    6.42   89.29 -120.79   0.0020000
  130.24  136.92  -90.57   0.0020000
    1.44   46.45 -179.43   0.0020000
  -72.63   90.49   40.98   0.0020000
  -51.16   89.79 -137.79   0.0020000
 -169.16   44.09  179.59   0.0020000
   18.97  156.29 -104.57   0.0020000
   98.67  135.69  179.50   0.0020000
  109.93   89.08 -147.96   0.0020000
  -14.85  133.96 -179.32   0.0020000
  150.70  135.91  -90.70   0.0020000
  -19.09   84.56   59.50   0.0020000
 -101.96  128.72  179.03   0.0020000
 -150.04  134.52   -0.24   0.0020000
 -168.51  130.45  -88.92   0.0020000
  -39.86  146.69  176.37   0.0020000
   13.91   51.14    1.48   0.0020000
  167.30  133.33   89.38   0.0020000
   71.86   53.07 -176.95   0.0020000
  147.34  136.09  179.33   0.0020000
  -90.96   44.65  -89.61   0.0020000
  160.89   90.82  -41.11   0.0020000
   45.59   22.76 -152.07   0.0020000
   77.73   50.18   93.00   0.0020000
 -147.97   45.02   -0.24   0.0020000
  -93.40   46.49 -179.65   0.0020000
 -146.69   90.01   35.00   0.0020000
   93.05  127.53   90.56   0.0020000
   58.20   90.81  -36.32   0.0020000
   -2.78   89.74   44.18   0.0020000
   -6.62   99.02  116.00   0.0020000
   58.25  158.68 -134.48   0.0020000
 -105.63  136.39   90.26   0.0020000
 -158.66   38.97 -179.27   0.0020000
   81.14   91.20  -53.95   0.0020000
  -70.25  124.38  177.86   0.0020000
  139.55   44.64   89.29   0.0020000
  152.01   34.80   -3.41   0.0020000
   73.20   89.56   45.42   0.0020000
  156.03   43.65   -0.71   0.0020000
  165.90   90.32 -138.51   0.0020000
  152.09   38.55  -92.83   0.0020000
  134.35  130.41  -92.29   0.0020000
  -69.23   46.81  -88.99   0.0020000
  -97.81   49.51   91.06   0.0020000
  155.33   88.36   56.86   0.0020000
  -65.88   57.26 -174.93   0.0020000
   32.38   89.62  133.44   0.0020000
 -171.13   89.80   48.34   0.0020000
   -1.64   90.25  -39.69   0.0020000
  -51.74  138.88    2.07   0.0020000
   65.28   45.53   89.86   0.0020000
    9.18  131.34   90.57   0.0020000
 -145.23   22.53 -144.84   0.0020000
  -48.31   90.12  135.98   0.0020000
  -20.93   45.35    0.69   0.0020000
   43.40  136.10 -179.98   0.0020000
  -89.13  136.80    0.34   0.0020000
 -165.96   34.23   93.02   0.0020000
  -24.77  132.74  -89.49   0.0020000
   56.56   89.50 -133.73   0.0020000
 -133.69  103.28  -68.29   0.0020000
  -11.51  140.85   91.19   0.0020000
  -98.65  135.66    0.33   0.0020000
  -68.99   79.13   24.20   0.0020000
  -82.78  138.58    0.10   0.0020000
  154.53   39.55  -93.54   0.0020000
   -1.00   89.58  137.08   0.0020000
   35.96   61.13    2.33   0.0020000
 -156.42   90.39 -132.50   0.0020000
   26.71   44.33    0.33   0.0020000
  175.88   33.20 -176.93   0.0020000
  109.69   79.35 -159.58   0.0020000
  -64.52   42.72   90.72   0.0020000
  -98.46   84.90  153.73   0.0020000
  108.30   89.76  132.13   0.0020000
 -169.63  144.25  -92.63   0.0020000
 -126.41  127.65    1.23   0.0020000
 -134.96   53.36   88.34   0.0020000
   42.89   46.09   90.04   0.0020000
 -169.31  149.96   -7.37   0.0020000
 -165.33   90.37  -44.95   0.0020000
  -56.32  133.31    0.53   0.0020000
  107.36   74.72  -15.87   0.0020000
   34.78   89.62   47.08   0.0020000
   -2.93   89.92   46.93   0.0020000
 -122.95   90.87  -50.57   0.0020000
