TEXTURE AT STRAIN =    1.0000
   1.645   1.645   0.364  <-- length of average ellipsoid axes for phase
    7.78    0.00    0.00  <-- Euler angles of average ellipsoid axes for phase
B       500
   97.88  120.22    6.40   0.0020000
 -157.52   43.30   89.61   0.0020000
  146.75   26.13   65.23   0.0020000
  149.12   90.02   43.70   0.0020000
  141.62   56.26    2.04   0.0020000
   31.56   20.91 -138.27   0.0020000
   10.34   89.59  -43.17   0.0020000
 -139.24  141.20   -1.03   0.0020000
  -37.18   88.08  130.53   0.0020000
 -105.41  137.73 -179.60   0.0020000
  -58.02  144.50  -86.84   0.0020000
   54.22  153.63   97.57   0.0020000
   47.42   89.46   43.37   0.0020000
   30.59  128.52  179.11   0.0020000
   58.96  129.39   -0.95   0.0020000
  -87.60   60.33  176.50   0.0020000
  124.58   33.78 -179.98   0.0020000
   94.40   46.73   -0.36   0.0020000
   91.46   48.22 -179.65   0.0020000
  -95.77   42.84 -179.71   0.0020000
 -129.15  131.84   -0.41   0.0020000
   32.48  136.49  -89.81   0.0020000
  -76.57   22.15   46.47   0.0020000
 -142.30   30.88 -170.33   0.0020000
  130.98   89.97   47.59   0.0020000
  108.55   89.68  -47.22   0.0020000
  -62.70   93.41  -64.29   0.0020000
  -16.70   46.13 -179.30   0.0020000
  -86.49   90.21 -122.06   0.0020000
  -11.40  133.92    0.60   0.0020000
  118.29   89.45   51.95   0.0020000
  -19.67   41.92    0.12   0.0020000
  162.41  132.86   89.48   0.0020000
  -85.53   61.39  -95.65   0.0020000
   -0.71  139.21  -91.25   0.0020000
   19.85   48.61  -90.66   0.0020000
  -21.37  141.42 -176.56   0.0020000
 -109.61   46.65 -179.83   0.0020000
 -127.74   91.17  130.11   0.0020000
   30.40   55.50   88.19   0.0020000
 -101.20  135.55   90.28   0.0020000
  112.99   70.33  102.24   0.0020000
  162.86   55.30 -178.03   0.0020000
  -20.21   39.93   93.17   0.0020000
  158.17   47.75  -90.70   0.0020000
 -152.60   90.48 -135.67   0.0020000
  -82.21   45.46    0.51   0.0020000
  133.38   89.87  134.00   0.0020000
  -26.19   45.11 -179.25   0.0020000
  -52.95   44.28 -179.30   0.0020000
  -54.21   40.41  -89.45   0.0020000
  -58.11   90.88  140.80   0.0020000
   36.86   89.58 -135.27   0.0020000
 -149.72  146.24   -4.31   0.0020000
   81.92   86.19 -141.06   0.0020000
  -86.13  132.03    0.00   0.0020000
   75.78  127.56  -87.88   0.0020000
    8.90   44.04    0.57   0.0020000
  -60.06   21.58  -26.20   0.0020000
   45.51   90.15  126.30   0.0020000
  149.19   31.23   -2.57   0.0020000
   -7.54   91.75  143.25   0.0020000
 -105.14   90.48 -134.42   0.0020000
  148.03  151.24  -82.36   0.0020000
  -52.84   90.15 -134.68   0.0020000
  177.60   88.10 -140.94   0.0020000
  -23.65  139.93 -177.89   0.0020000
   27.18  127.92 -175.51   0.0020000
 -135.53   44.27   89.90   0.0020000
 -120.89   88.92 -140.56   0.0020000
   29.79   89.50   40.44   0.0020000
   -6.11  116.87  173.79   0.0020000
   73.68   31.39  174.73   0.0020000
 -118.72   90.54  -46.19   0.0020000
   24.05  144.28   91.45   0.0020000
  -80.37  148.80    3.97   0.0020000
  -31.34  137.04 -179.15   0.0020000
  121.13   36.62   84.73   0.0020000
  132.30   49.24   89.65   0.0020000
  -15.71  153.67   25.63   0.0020000
  169.79   47.84  179.33   0.0020000
   62.22   37.64 -179.77   0.0020000
  -72.66  138.98   91.05   0.0020000
  -51.46  127.23 -178.79   0.0020000
   44.61   19.63   43.39   0.0020000
  155.44   51.13 -179.38   0.0020000
  175.47   90.26  135.25   0.0020000
   53.65   90.22  126.30   0.0020000
   23.47  127.41   87.43   0.0020000
   19.71   89.59  -46.27   0.0020000
  171.62   42.36   -0.60   0.0020000
  117.30   40.95   -0.51   0.0020000
   96.47   69.85  167.44   0.0020000
   69.39  138.68  -91.77   0.0020000
  -53.55  115.49   -6.26   0.0020000
 -129.30  144.86  -94.51   0.0020000
   84.99  137.35   89.98   0.0020000
   78.03   89.42  -48.53   0.0020000
   90.26   90.31  -49.13   0.0020000
 -176.85   89.22   52.48   0.0020000
   70.75   89.40  -43.33   0.0020000
 -178.20   73.65   75.67   0.0020000
  149.27   47.71   -0.31   0.0020000
  135.13  136.66   89.39   0.0020000
   39.60  114.15   86.29   0.0020000
  123.13   89.79  -45.78   0.0020000
   62.07   40.02    0.62   0.0020000
  -74.56   36.52  172.90   0.0020000
   13.93  128.84  -91.88   0.0020000
  -23.26   89.88 -131.32   0.0020000
  -25.14   41.86  -89.66   0.0020000
   69.82  130.91   89.43   0.0020000
  -87.93   90.95  132.40   0.0020000
 -133.42   54.64 -177.17   0.0020000
  114.59  123.26  -93.35   0.0020000
  152.88  134.07   -0.90   0.0020000
   88.89   86.84   35.06   0.0020000
  -31.72   41.52  -88.81   0.0020000
 -150.43  131.20    0.61   0.0020000
   40.80  135.43    0.15   0.0020000
   60.68   27.28  -76.32   0.0020000
   13.57  117.80   91.41   0.0020000
   62.89   45.65  179.87   0.0020000
 -104.75   50.63  177.98   0.0020000
  165.86  141.06    1.23   0.0020000
   68.24  135.21   -0.18   0.0020000
   87.09   82.72  -69.54   0.0020000
  152.20  138.56  -89.66   0.0020000
  178.11   48.60  -92.44   0.0020000
  -14.81  141.68  -89.94   0.0020000
    6.57   57.07    1.59   0.0020000
 -126.42   90.57  133.36   0.0020000
   40.50   99.19 -112.08   0.0020000
  -68.93   45.47  -89.36   0.0020000
 -173.30  134.46  179.48   0.0020000
  -78.62   92.71  -36.93   0.0020000
  -83.82   47.95   90.46   0.0020000
  161.97   90.13  137.06   0.0020000
  -72.44   88.32   33.98   0.0020000
   46.48  132.53 -179.89   0.0020000
  -88.75  139.77   91.44   0.0020000
  107.76  135.26   89.42   0.0020000
 -176.31   49.61   89.58   0.0020000
   47.95   39.95   89.79   0.0020000
 -155.13  127.31   89.18   0.0020000
  141.72   89.98   43.06   0.0020000
  153.36   47.25   89.46   0.0020000
   94.59   89.76  127.40   0.0020000
   29.70  108.43  -87.54   0.0020000
   92.59   89.54  133.47   0.0020000
 -145.26  134.04   89.68   0.0020000
  -49.37   90.21  -43.99   0.0020000
   66.17   50.97    0.69   0.0020000
 -127.13   89.13   50.30   0.0020000
 -100.43   89.73 -128.55   0.0020000
  141.50  137.47  179.32   0.0020000
 -129.16  135.82  -90.06   0.0020000
    3.37  139.76    1.33   0.0020000
  158.74   93.09   60.06   0.0020000
  172.13   90.22 -137.23   0.0020000
   35.82  132.67   90.26   0.0020000
  124.86   45.38  179.32   0.0020000
 -122.09   90.72   42.28   0.0020000
 -177.92  139.57 -178.55   0.0020000
   75.39   88.31   50.53   0.0020000
   48.21   89.62   44.04   0.0020000
  -45.88   25.27  149.03   0.0020000
   75.58   26.13  167.14   0.0020000
  102.71   94.45  157.16   0.0020000
  110.85   50.69  177.99   0.0020000
  -28.23   91.00 -129.89   0.0020000
  -19.76  142.90   -0.92   0.0020000
 -171.92   40.23  179.91   0.0020000
 -103.69   90.42  -41.84   0.0020000
 -109.10  135.33    0.21   0.0020000
  141.62   90.01  -44.05   0.0020000
  162.75   90.20  134.07   0.0020000
 -165.88  133.58  179.60   0.0020000
 -121.76   91.16  -49.29   0.0020000
  110.95   49.60  -89.61   0.0020000
  -29.45   44.71   90.75   0.0020000
  115.07   87.20 -150.41   0.0020000
 -140.93  132.10   90.37   0.0020000
 -115.06   87.84 -128.49   0.0020000
  117.46  108.81  106.30   0.0020000
  141.52   45.38   -0.73   0.0020000
  170.08   53.39 -177.98   0.0020000
   44.87   91.36   54.12   0.0020000
 -163.35   90.54 -137.83   0.0020000
  148.30   88.90  -51.79   0.0020000
 -140.13   48.52  -90.07   0.0020000
  177.13   43.71  -90.28   0.0020000
  -41.75  135.90    0.73   0.0020000
  -78.39   88.76   62.16   0.0020000
  -57.99   90.25  137.64   0.0020000
   72.95  126.46    0.11   0.0020000
  139.46  141.70 -179.39   0.0020000
   46.69  147.83   86.94   0.0020000
   38.65  137.56 -179.75   0.0020000
  -98.10   45.88    0.34   0.0020000
  102.66  137.06  179.55   0.0020000
    1.69  132.71    0.88   0.0020000
   27.14   89.55 -133.09   0.0020000
   99.20   65.58  -98.53   0.0020000
  -33.66  121.94   -2.74   0.0020000
   47.05   89.52  -48.26   0.0020000
  140.17  136.70   -0.70   0.0020000
 -100.73  130.70    0.20   0.0020000
   56.77   39.63   89.91   0.0020000
  -92.34  134.43  -89.52   0.0020000
  -90.91   46.36  -89.60   0.0020000
 -149.97   43.57   -0.24   0.0020000
  -20.27  151.48 -103.05   0.0020000
   27.23   73.43  165.99   0.0020000
    0.13  152.40 -176.30   0.0020000
  103.19   89.63  -46.77   0.0020000
   21.82   89.60 -135.13   0.0020000
   40.54   37.17 -177.35   0.0020000
   17.73   75.26 -160.87   0.0020000
 -156.79   50.15  178.94   0.0020000
  117.08  142.36   -2.40   0.0020000
 -158.98   89.97   36.60   0.0020000
 -161.86   90.39 -136.56   0.0020000
  -70.65  137.23  -89.18   0.0020000
  -43.03   75.94  164.26   0.0020000
  138.40   89.05 -139.92   0.0020000
  -31.23  131.84 -179.50   0.0020000
  -16.48   83.95   28.21   0.0020000
  -98.99   42.27 -179.37   0.0020000
 -146.63   74.63 -101.20   0.0020000
  -69.28   59.58  -92.60   0.0020000
   -9.68   88.10   34.01   0.0020000
  168.29  146.90   88.51   0.0020000
  124.53   48.47   89.00   0.0020000
 -147.78  141.64  177.20   0.0020000
 -155.74   92.40  121.47   0.0020000
  167.09   92.86 -122.36   0.0020000
 -110.77   90.84  142.36   0.0020000
   57.66   87.85 -124.57   0.0020000
 -132.65   89.43 -149.46   0.0020000
   23.81   57.05   -1.05   0.0020000
   47.14   45.21  -89.92   0.0020000
   31.91  138.98   88.80   0.0020000
  -64.03  140.89  -89.09   0.0020000
  -33.40   59.97  -91.35   0.0020000
  -61.31  127.70   87.60   0.0020000
 -128.67   91.34 -139.84   0.0020000
   72.82  137.12 -180.00   0.0020000
  -99.23   92.66   51.70   0.0020000
  -77.87  127.04  179.43   0.0020000
  -96.71  126.13   90.20   0.0020000
  117.98   53.86  -89.59   0.0020000
  -91.07   48.36 -179.57   0.0020000
  -40.07   47.78 -179.28   0.0020000
   28.03   44.23   90.42   0.0020000
 -175.79   40.10    1.46   0.0020000
  -91.07  135.65 -179.58   0.0020000
   25.63   89.73   42.95   0.0020000
  -21.54  139.64  -87.25   0.0020000
  120.96   89.81 -135.00   0.0020000
 -120.43   51.21 -179.65   0.0020000
  -84.68   89.20  -56.28   0.0020000
   -6.39  137.91   90.22   0.0020000
  160.99   44.28   89.27   0.0020000
 -105.91  137.30 -179.82   0.0020000
   21.37   38.65  -86.12   0.0020000
  -32.49  138.21    0.94   0.0020000
 -101.44  140.68    0.12   0.0020000
 -150.62   90.51  -46.85   0.0020000
  -48.75   92.30 -125.76   0.0020000
  -48.58   90.14  134.17   0.0020000
 -133.38  138.16  -90.49   0.0020000
 -127.33   93.05  -53.73   0.0020000
  -85.83   90.42  134.08   0.0020000
 -100.56   92.72  130.45   0.0020000
  -18.66  134.45  -89.26   0.0020000
 -106.66  134.57    0.23   0.0020000
 -174.19  130.03    0.78   0.0020000
  142.96  137.56  179.33   0.0020000
   57.97   90.83   48.85   0.0020000
 -136.15  133.80  -89.79   0.0020000
  149.24   89.99  -44.27   0.0020000
 -143.21  138.81 -179.73   0.0020000
   75.49   50.63   90.06   0.0020000
 -141.94  142.58  179.99   0.0020000
  -99.06   90.53  -44.53   0.0020000
   51.70  132.28   90.19   0.0020000
  142.87   89.98   47.31   0.0020000
  -40.53   90.98 -140.04   0.0020000
   -0.41   24.35 -150.93   0.0020000
  -51.47  135.01   90.68   0.0020000
  -24.98   41.49  179.86   0.0020000
   72.47   86.67 -147.35   0.0020000
  -64.45   46.18    0.68   0.0020000
  141.61  145.28  -88.16   0.0020000
  -33.78   49.74  178.98   0.0020000
  133.04   90.16 -139.16   0.0020000
 -106.49   88.11  143.62   0.0020000
  171.49  145.91   93.87   0.0020000
 -133.56  134.99  179.90   0.0020000
   25.62   48.69   -0.25   0.0020000
   62.43   42.09   90.20   0.0020000
  -43.42   39.50   88.89   0.0020000
 -155.26  130.18    0.17   0.0020000
  -58.45  158.22   28.14   0.0020000
  -39.35   90.28 -130.97   0.0020000
  -49.82   65.67  175.03   0.0020000
 -118.77   63.66  172.88   0.0020000
  162.27   92.31 -146.62   0.0020000
  -98.57  107.15   78.82   0.0020000
   24.40  132.03   90.61   0.0020000
  -55.46   90.20  134.82   0.0020000
 -152.66   45.74   89.66   0.0020000
 -143.86  135.22  179.75   0.0020000
 -112.78   44.84 -179.82   0.0020000
   63.00  103.69 -161.01   0.0020000
  -15.52   89.59   52.00   0.0020000
 -115.15   51.85   87.92   0.0020000
  -48.28   89.50 -139.00   0.0020000
 -171.20   90.52   37.31   0.0020000
  -14.01  139.56    1.63   0.0020000
  109.37   84.15 -115.44   0.0020000
  -39.77   89.94  142.01   0.0020000
   69.09  138.26 -178.88   0.0020000
  -11.64   38.52 -179.65   0.0020000
  -36.46   89.38 -120.21   0.0020000
  -29.24  135.44   90.79   0.0020000
   10.50   91.32   39.38   0.0020000
  108.48   70.24  -10.72   0.0020000
  176.56   90.01   41.19   0.0020000
  -53.40   90.53   48.87   0.0020000
   45.01  109.99  -79.68   0.0020000
  133.27  144.10   88.94   0.0020000
 -117.04   44.77    0.12   0.0020000
   28.54  131.53   90.31   0.0020000
 -110.98   52.99   90.24   0.0020000
  -32.77  139.69   92.08   0.0020000
   74.97   95.32 -152.01   0.0020000
  -19.11   90.50 -130.64   0.0020000
  176.54   90.38  -42.84   0.0020000
  130.87   42.05   -0.75   0.0020000
   61.20   92.67 -144.80   0.0020000
   67.66   44.28   89.79   0.0020000
   -1.32  139.04    0.58   0.0020000
  101.98   89.67   42.09   0.0020000
  155.12  135.70  179.28   0.0020000
   72.43   61.31    3.70   0.0020000
  177.42  139.17   -0.14   0.0020000
   64.37   48.69 -179.10   0.0020000
 -155.02   92.75   38.78   0.0020000
  147.95  135.30  -90.77   0.0020000
 -111.14   90.52   45.56   0.0020000
  -61.58  136.08   91.29   0.0020000
   92.76  111.02 -100.72   0.0020000
  149.03   37.60 -179.62   0.0020000
 -105.82   98.87  161.73   0.0020000
   13.72   91.80  -33.51   0.0020000
 -114.47   47.07   90.00   0.0020000
 -142.86   90.55   43.53   0.0020000
 -147.70   34.60  -94.25   0.0020000
  152.45   85.62  115.83   0.0020000
  -57.16  101.57   69.47   0.0020000
  161.03  132.24  179.32   0.0020000
 -161.09  123.70  -85.95   0.0020000
  139.26   49.19 -179.46   0.0020000
  170.76  137.90   -0.64   0.0020000
   22.07   89.53 -131.18   0.0020000
  117.48   89.75  134.69   0.0020000
  -50.29  145.23    2.33   0.0020000
  -49.06  114.28 -172.00   0.0020000
  154.69  137.62   -0.75   0.0020000
  107.31   45.43  179.42   0.0020000
 -107.78   49.28  -88.86   0.0020000
  -61.37   39.53  -89.75   0.0020000
    4.57  133.87  -89.42   0.0020000
   65.85   55.79  -89.07   0.0020000
  -69.68  143.29  -91.39   0.0020000
   -0.92   47.36  -89.29   0.0020000
   94.92   41.79  -90.28   0.0020000
  -46.17   48.26   90.52   0.0020000
  -93.09   46.99  -89.60   0.0020000
  -11.37  135.92   90.78   0.0020000
 -136.06  138.35  179.44   0.0020000
 -154.52   42.19   90.17   0.0020000
  -77.80  133.58    0.40   0.0020000
   34.05  102.48  165.66   0.0020000
    8.67   89.64  -44.65   0.0020000
  127.47   40.21 -177.62   0.0020000
  131.39  138.21   90.05   0.0020000
  116.77   89.77  131.42   0.0020000
  178.09  144.93  177.15   0.0020000
  130.86   89.75  -49.14   0.0020000
 -123.52   91.50  -55.15   0.0020000
  113.25   44.21  179.29   0.0020000
   39.61   82.51   64.44   0.0020000
 -128.56  139.29  -91.30   0.0020000
 -104.96  136.07  -89.74   0.0020000
  166.80   46.46  -90.73   0.0020000
  110.48   44.44   -0.59   0.0020000
   77.41   51.53  -87.85   0.0020000
   86.30   40.67  -89.96   0.0020000
 -122.33   44.40   90.07   0.0020000
 -165.22   90.94   37.83   0.0020000
 -174.06   38.59   -2.63   0.0020000
   65.37   48.03 -179.88   0.0020000
 -146.76   90.51  -45.65   0.0020000
 -170.22  133.66  -90.48   0.0020000
 -132.06  133.50 -179.97   0.0020000
 -123.93   49.57  178.92   0.0020000
  -90.57   90.43   46.04   0.0020000
 -157.92   90.41   46.32   0.0020000
  169.00  142.84   -2.78   0.0020000
  -50.20   86.16 -120.56   0.0020000
    6.50   89.34 -119.46   0.0020000
  129.95  137.27  -90.58   0.0020000
    0.39   47.02 -179.33   0.0020000
  -75.05   90.91   39.93   0.0020000
  -50.02   89.70 -138.29   0.0020000
 -167.82   43.66  179.61   0.0020000
   16.88  157.39 -106.62   0.0020000
   99.52  136.07  179.44   0.0020000
  109.89   89.15 -149.07   0.0020000
  -13.66  133.37 -179.25   0.0020000
  150.43  136.17  -90.75   0.0020000
  -18.96   82.84   62.17   0.0020000
 -104.88  127.44  178.64   0.0020000
 -149.64  134.45   -0.28   0.0020000
 -165.10  129.01  -88.28   0.0020000
  -40.04  148.10  174.53   0.0020000
   10.72   52.51    2.09   0.0020000
  167.28  133.02   89.38   0.0020000
   69.42   55.04 -176.33   0.0020000
  147.17  136.38  179.29   0.0020000
  -91.16   44.64  -89.59   0.0020000
  163.74   91.29  -39.83   0.0020000
   42.04   22.28 -148.39   0.0020000
   74.29   51.88   93.92   0.0020000
 -147.51   45.10   -0.28   0.0020000
  -92.88   47.04 -179.67   0.0020000
 -145.33   89.51   33.76   0.0020000
   95.50  126.19   91.05   0.0020000
   60.67   91.40  -34.98   0.0020000
   -3.07   89.72   44.07   0.0020000
   -5.93  102.75  112.33   0.0020000
   57.27  158.61 -135.49   0.0020000
 -106.09  136.90   90.26   0.0020000
 -157.50   38.15 -179.28   0.0020000
   78.87   91.64  -55.26   0.0020000
  -71.71  122.86  177.20   0.0020000
  139.27   44.52   89.23   0.0020000
  151.45   33.61   -4.06   0.0020000
   74.21   89.55   45.82   0.0020000
  156.16   43.26   -0.72   0.0020000
  164.28   90.45 -139.42   0.0020000
  149.89   37.28  -93.28   0.0020000
  130.96  128.76  -92.97   0.0020000
  -72.13   47.97  -88.55   0.0020000
 -100.75   50.86   91.42   0.0020000
  154.61   87.38   58.61   0.0020000
  -66.77   59.35 -173.98   0.0020000
   32.16   89.63  133.12   0.0020000
 -173.61   89.36   49.35   0.0020000
    0.63   90.61  -38.45   0.0020000
  -54.10  140.43    3.18   0.0020000
   65.03   45.64   89.87   0.0020000
    9.22  130.73   90.51   0.0020000
 -148.30   22.32 -141.62   0.0020000
  -47.82   90.14  136.32   0.0020000
  -21.03   45.44    0.73   0.0020000
   43.88  136.32 -179.97   0.0020000
  -87.20  137.81    0.17   0.0020000
 -165.76   32.99   93.99   0.0020000
  -25.54  132.15  -89.56   0.0020000
   57.06   89.50 -133.24   0.0020000
 -133.82  103.95  -68.97   0.0020000
  -12.70  141.79   91.32   0.0020000
  -98.67  135.91    0.34   0.0020000
  -69.27   76.79   21.91   0.0020000
  -80.86  139.91   -0.72   0.0020000
  152.74   37.93  -94.38   0.0020000
   -3.65   89.41  138.21   0.0020000
   35.69   63.35    4.09   0.0020000
 -155.14   90.53 -131.69   0.0020000
   27.14   44.08    0.37   0.0020000
  175.27   31.81 -175.38   0.0020000
  109.73   78.85 -160.30   0.0020000
  -62.55   41.59   91.16   0.0020000
  -97.42   82.35  156.51   0.0020000
  106.65   89.99  131.09   0.0020000
 -168.46  145.46  -93.11   0.0020000
 -124.78  126.60    1.31   0.0020000
 -133.18   54.61   88.22   0.0020000
   43.05   46.26   90.06   0.0020000
 -172.25  151.64  -10.20   0.0020000
 -165.63   90.40  -45.00   0.0020000
  -56.61  133.00    0.53   0.0020000
  107.42   74.84  -16.21   0.0020000
   37.23   89.89   48.28   0.0020000
   -0.14   90.27   48.28   0.0020000
 -123.80   90.82  -51.47   0.0020000
