TEXTURE AT STRAIN =    1.0000
   1.644   1.644   0.364  <-- length of average ellipsoid axes for phase
  -18.90    0.00    0.00  <-- Euler angles of average ellipsoid axes for phase
B       500
   90.52  129.18    2.42   0.0020000
 -158.39   44.16   89.70   0.0020000
  129.38   33.89   85.11   0.0020000
  149.20   89.99   44.36   0.0020000
  146.63   51.88    0.42   0.0020000
   42.06   21.02 -149.19   0.0020000
    9.96   89.70  -44.04   0.0020000
 -140.28  139.02   -0.78   0.0020000
  -45.39   89.82  134.10   0.0020000
 -103.78  136.15 -179.80   0.0020000
  -55.88  140.85  -88.42   0.0020000
   47.57  146.67   89.79   0.0020000
   46.46   89.59   44.44   0.0020000
   35.53  131.46 -179.62   0.0020000
   62.94  132.02   -0.03   0.0020000
  -91.37   54.12  179.76   0.0020000
  124.03   37.38  178.88   0.0020000
   94.20   45.95   -0.27   0.0020000
   94.31   46.40  179.81   0.0020000
  -95.67   43.71 -179.79   0.0020000
 -127.15  133.60    0.00   0.0020000
   32.54  135.79  -89.82   0.0020000
  -91.20   21.88   61.84   0.0020000
 -140.61   37.56 -177.75   0.0020000
  130.79   90.00   46.63   0.0020000
  107.63   89.68  -46.14   0.0020000
  -62.46   90.01  -57.26   0.0020000
  -16.21   45.53 -179.41   0.0020000
  -86.10   90.46 -125.91   0.0020000
  -10.40  134.59    0.55   0.0020000
  120.69   90.12   49.32   0.0020000
  -16.37   43.90    0.52   0.0020000
  161.43  134.12   89.42   0.0020000
  -90.78   53.91  -90.74   0.0020000
   -4.84  136.34  -89.60   0.0020000
   16.11   46.52  -89.81   0.0020000
  -17.89  137.82 -178.89   0.0020000
 -109.81   45.84 -179.90   0.0020000
 -125.28   90.66  132.09   0.0020000
   26.26   51.62   89.30   0.0020000
 -101.19  135.28   90.19   0.0020000
  115.40   58.27   92.28   0.0020000
  169.27   51.04 -179.87   0.0020000
  -25.54   43.68   90.87   0.0020000
  158.26   46.46  -90.56   0.0020000
 -152.15   90.37 -135.31   0.0020000
  -81.86   45.23    0.37   0.0020000
  133.19   89.87  134.47   0.0020000
  -25.99   45.05 -179.39   0.0020000
  -52.15   44.69 -179.46   0.0020000
  -54.69   42.14  -89.75   0.0020000
  -60.28   90.56  138.63   0.0020000
   37.78   89.64 -135.09   0.0020000
 -152.05  141.86   -1.74   0.0020000
   73.36   88.09 -136.13   0.0020000
  -85.14  133.31    0.19   0.0020000
   69.51  131.31  -89.61   0.0020000
    8.96   44.50    0.48   0.0020000
  -82.10   29.71   -3.57   0.0020000
   46.54   90.08  129.13   0.0020000
  149.07   35.47   -1.44   0.0020000
  -12.97   90.25  139.18   0.0020000
 -104.93   90.41 -134.72   0.0020000
  143.85  144.73  -88.97   0.0020000
  -53.34   90.15 -134.83   0.0020000
  169.63   89.93 -136.69   0.0020000
  -21.21  137.63 -179.11   0.0020000
   15.94  133.12 -178.25   0.0020000
 -136.15   44.69   89.89   0.0020000
 -126.29   90.36 -136.99   0.0020000
   28.47   89.83   42.26   0.0020000
   -1.63  125.15  179.40   0.0020000
   72.88   36.91  179.22   0.0020000
 -118.28   90.45  -45.57   0.0020000
   25.41  140.94   89.87   0.0020000
  -80.98  143.97    1.33   0.0020000
  -31.76  136.12 -179.32   0.0020000
  125.02   41.57   88.23   0.0020000
  132.15   47.69   89.73   0.0020000
  -32.55  146.23    5.85   0.0020000
  169.82   46.63  179.44   0.0020000
   62.31   40.14 -179.70   0.0020000
  -71.99  137.48   90.69   0.0020000
  -55.23  130.43 -179.82   0.0020000
   51.70   19.63   36.04   0.0020000
  158.81   48.74  179.83   0.0020000
  175.51   90.18  135.09   0.0020000
   55.11   90.03  129.15   0.0020000
   32.13  132.37   89.97   0.0020000
   20.05   89.70  -45.55   0.0020000
  171.46   43.35   -0.56   0.0020000
  116.84   42.45   -0.70   0.0020000
   93.40   57.66  178.11   0.0020000
   64.85  136.05  -90.23   0.0020000
  -51.29  124.15   -1.01   0.0020000
 -132.98  140.24  -91.57   0.0020000
   87.00  135.94   89.79   0.0020000
   77.29   89.59  -47.05   0.0020000
   94.12   89.68  -46.58   0.0020000
 -173.99   89.82   49.63   0.0020000
   72.22   89.55  -44.37   0.0020000
 -178.56   73.02   77.34   0.0020000
  151.66   46.13   -0.51   0.0020000
  135.82  135.76   89.47   0.0020000
   41.28  121.68   90.34   0.0020000
  122.52   89.80  -45.39   0.0020000
   61.41   41.82    0.23   0.0020000
  -68.52   42.96  178.53   0.0020000
   21.75  132.91  -89.78   0.0020000
  -22.80   89.98 -132.74   0.0020000
  -24.48   43.38  -89.48   0.0020000
   71.88  132.90   89.86   0.0020000
  -83.24   90.45  134.64   0.0020000
 -126.02   49.11 -179.52   0.0020000
  119.61  128.02  -91.54   0.0020000
  155.07  134.81   -0.68   0.0020000
   82.23   88.72   40.58   0.0020000
  -33.63   43.60  -89.39   0.0020000
 -152.93  132.78    0.05   0.0020000
   40.37  135.16    0.16   0.0020000
   70.00   34.89  -88.15   0.0020000
   12.99  123.01   90.92   0.0020000
   62.75   45.28  179.94   0.0020000
 -112.34   47.02  179.84   0.0020000
  168.88  138.38   -0.28   0.0020000
   68.06  135.07   -0.10   0.0020000
   87.46   87.90  -61.78   0.0020000
  156.32  136.20  -90.48   0.0020000
  171.97   45.59  -91.44   0.0020000
  -15.97  139.38  -89.38   0.0020000
    9.38   52.99    0.23   0.0020000
 -126.80   90.46  134.14   0.0020000
   40.70   90.38 -123.29   0.0020000
  -68.65   45.25  -89.52   0.0020000
 -173.13  134.78  179.54   0.0020000
  -85.32   90.97  -41.63   0.0020000
  -83.60   46.81   90.42   0.0020000
  161.75   90.10  136.17   0.0020000
  -76.40   89.58   38.16   0.0020000
   46.54  133.85 -179.83   0.0020000
  -86.77  137.62   90.56   0.0020000
  108.04  135.11   89.57   0.0020000
 -176.04   48.01   89.44   0.0020000
   49.18   41.93   90.32   0.0020000
 -151.98  130.19   90.14   0.0020000
  142.19   89.94   44.18   0.0020000
  153.84   46.07   89.46   0.0020000
   95.11   89.54  129.89   0.0020000
   29.71  114.30  -86.95   0.0020000
   92.13   89.62  134.29   0.0020000
 -143.84  134.87   89.77   0.0020000
  -50.82   90.17  -44.57   0.0020000
   69.40   48.56   -0.08   0.0020000
 -123.08   90.14   47.63   0.0020000
  -98.10   90.25 -130.93   0.0020000
  142.11  136.39  179.47   0.0020000
 -129.88  135.40  -90.10   0.0020000
    5.11  137.82    0.45   0.0020000
  157.18   90.67   54.08   0.0020000
  172.39   90.17 -136.25   0.0020000
   35.05  133.83   90.30   0.0020000
  125.21   45.15  179.47   0.0020000
 -120.82   90.49   43.73   0.0020000
 -172.50  136.15  179.71   0.0020000
   79.78   89.43   47.53   0.0020000
   50.14   89.64   44.74   0.0020000
  -71.50   35.90  177.17   0.0020000
   65.35   34.09  179.10   0.0020000
  103.25   90.81  149.35   0.0020000
  105.47   47.25  179.57   0.0020000
  -31.68   90.20 -132.40   0.0020000
  -22.30  139.83    0.56   0.0020000
 -172.44   41.85  179.80   0.0020000
 -103.63   90.38  -43.04   0.0020000
 -109.24  135.17    0.12   0.0020000
  141.83   89.98  -44.54   0.0020000
  163.48   90.11  134.64   0.0020000
 -165.60  134.28  179.64   0.0020000
 -119.15   90.58  -47.28   0.0020000
  112.61   47.89  -90.04   0.0020000
  -29.10   44.86   90.61   0.0020000
  113.26   88.94 -145.00   0.0020000
 -142.65  133.54   89.99   0.0020000
 -106.26   90.02 -133.14   0.0020000
  113.30  123.75   93.76   0.0020000
  141.65   45.18   -0.59   0.0020000
  177.56   49.17 -179.98   0.0020000
   39.06   89.70   49.90   0.0020000
 -163.07   90.38 -136.56   0.0020000
  145.05   89.57  -49.06   0.0020000
 -139.38   46.85  -90.28   0.0020000
  174.37   44.91  -90.41   0.0020000
  -42.06  135.32    0.60   0.0020000
  -77.53   90.40   56.67   0.0020000
  -58.53   90.26  136.53   0.0020000
   72.69  129.25    0.03   0.0020000
  141.00  139.30 -179.97   0.0020000
   46.52  143.46   88.91   0.0020000
   38.71  136.35 -179.92   0.0020000
  -98.28   45.43    0.23   0.0020000
  103.19  136.19  179.67   0.0020000
   -1.86  134.36    0.63   0.0020000
   27.27   89.62 -134.13   0.0020000
   96.13   55.34  -90.94   0.0020000
  -28.79  127.10   -0.50   0.0020000
   46.68   89.67  -46.85   0.0020000
  140.81  135.86   -0.56   0.0020000
 -100.54  132.18    0.16   0.0020000
   57.54   41.62   90.23   0.0020000
  -93.64  134.93  -89.71   0.0020000
  -90.01   45.68  -89.69   0.0020000
 -150.14   44.23   -0.21   0.0020000
  -13.87  143.90  -91.45   0.0020000
   26.08   68.06  171.46   0.0020000
   -2.01  146.92 -179.19   0.0020000
  102.97   89.67  -45.91   0.0020000
   22.55   89.68 -135.03   0.0020000
   37.20   40.44 -178.83   0.0020000
   17.61   87.04 -149.59   0.0020000
 -158.91   48.22  179.30   0.0020000
  114.07  138.79   -0.41   0.0020000
 -160.72   90.54   39.53   0.0020000
 -162.61   90.32 -135.61   0.0020000
  -69.09  135.97  -89.46   0.0020000
  -43.00   78.18  163.60   0.0020000
  135.37   89.66 -137.73   0.0020000
  -31.03  133.05 -179.54   0.0020000
  -18.71   88.92   36.42   0.0020000
  -99.63   43.70 -179.77   0.0020000
 -146.86   71.85  -99.84   0.0020000
  -73.15   53.85  -89.71   0.0020000
  -12.87   89.54   38.36   0.0020000
  167.99  143.20   89.41   0.0020000
  121.75   46.35   89.54   0.0020000
 -151.41  138.46  178.98   0.0020000
 -153.64   91.06  126.33   0.0020000
  163.72   90.65 -127.69   0.0020000
 -113.21   90.31  139.56   0.0020000
   61.76   89.02 -128.61   0.0020000
 -134.09   90.64 -144.82   0.0020000
   21.67   53.24   -0.48   0.0020000
   46.73   45.05  -89.90   0.0020000
   29.48  136.81   89.97   0.0020000
  -63.88  138.87  -89.05   0.0020000
  -36.15   54.94  -89.38   0.0020000
  -54.04  131.81   89.70   0.0020000
 -125.55   90.65 -137.66   0.0020000
   74.83  135.78  179.87   0.0020000
 -106.98   90.74   47.11   0.0020000
  -75.90  129.75  179.78   0.0020000
  -96.72  128.96   90.09   0.0020000
  119.44   50.98  -89.76   0.0020000
  -90.84   47.10 -179.65   0.0020000
  -39.94   46.72 -179.32   0.0020000
   27.04   44.63   90.35   0.0020000
 -178.79   42.86   -0.25   0.0020000
  -90.94  135.31 -179.71   0.0020000
   26.58   89.72   44.06   0.0020000
  -17.30  136.56  -89.16   0.0020000
  120.35   89.81 -135.03   0.0020000
 -118.38   48.83  179.88   0.0020000
  -87.16   89.94  -52.59   0.0020000
   -7.48  136.34   90.52   0.0020000
  161.59   44.68   89.39   0.0020000
 -105.46  136.27 -179.85   0.0020000
   16.03   42.73  -89.01   0.0020000
  -32.37  137.04    0.77   0.0020000
 -101.31  138.71    0.20   0.0020000
 -150.39   90.41  -46.01   0.0020000
  -54.77   91.00 -129.91   0.0020000
  -47.93   90.11  134.81   0.0020000
 -134.50  136.58  -90.27   0.0020000
 -120.84   91.24  -48.76   0.0020000
  -86.43   90.35  134.60   0.0020000
  -92.90   91.07  134.40   0.0020000
  -18.69  134.76  -89.40   0.0020000
 -107.16  134.81    0.14   0.0020000
 -178.11  132.15   -0.18   0.0020000
  143.48  136.48  179.47   0.0020000
   51.49   89.79   45.55   0.0020000
 -139.60  134.86  -90.06   0.0020000
  150.65   90.00  -44.92   0.0020000
 -140.85  136.51  179.75   0.0020000
   76.51   48.67   89.87   0.0020000
 -141.03  139.89  179.28   0.0020000
  -99.33   90.42  -44.80   0.0020000
   51.69  133.43   90.17   0.0020000
  142.79   90.02   46.24   0.0020000
  -36.71   90.01 -137.27   0.0020000
   21.37   31.15 -173.93   0.0020000
  -51.10  134.99   90.55   0.0020000
  -21.87   43.64 -179.50   0.0020000
   66.48   89.07 -141.82   0.0020000
  -64.38   45.59    0.52   0.0020000
  143.63  141.61  -89.65   0.0020000
  -40.19   46.50 -179.48   0.0020000
  134.72   89.83 -137.12   0.0020000
  -99.99   89.85  139.05   0.0020000
  174.91  141.18   90.33   0.0020000
 -134.24  135.03  179.88   0.0020000
   24.40   47.36   -0.01   0.0020000
   61.41   43.59   90.05   0.0020000
  -41.09   41.81   90.06   0.0020000
 -155.93  131.83    0.12   0.0020000
  -80.42  151.20    5.53   0.0020000
  -39.77   90.22 -132.43   0.0020000
  -52.04   57.34 -179.66   0.0020000
 -122.28   55.39  178.27   0.0020000
  166.56   90.54 -141.71   0.0020000
  -96.90  116.06   86.23   0.0020000
   23.06  133.54   90.46   0.0020000
  -55.50   90.17  135.04   0.0020000
 -153.19   45.35   89.68   0.0020000
 -144.37  135.17  179.77   0.0020000
 -112.60   44.95 -179.91   0.0020000
   62.85   92.99 -149.97   0.0020000
  -14.06   89.85   49.43   0.0020000
 -121.12   48.43   89.48   0.0020000
  -49.87   89.84 -137.48   0.0020000
 -170.67   90.54   39.88   0.0020000
  -12.09  137.62    0.75   0.0020000
  109.65   89.54 -123.90   0.0020000
  -38.40   90.30  139.47   0.0020000
   74.00  135.66  179.99   0.0020000
  -11.40   40.71 -179.53   0.0020000
  -35.62   90.35 -124.93   0.0020000
  -29.28  135.21   90.63   0.0020000
   15.13   90.05   42.46   0.0020000
  106.01   59.11   -1.48   0.0020000
  175.79   90.19   42.70   0.0020000
  -54.78   90.34   47.29   0.0020000
   43.48  119.39  -86.94   0.0020000
  132.41  140.85   89.93   0.0020000
 -117.25   44.93    0.05   0.0020000
   28.66  132.86   90.44   0.0020000
 -109.89   50.22   89.99   0.0020000
  -30.51  137.45   90.92   0.0020000
   77.98   90.69 -144.24   0.0020000
  -21.29   90.03 -132.64   0.0020000
  175.23   90.18  -44.11   0.0020000
  130.91   43.19   -0.70   0.0020000
   68.22   90.54 -139.16   0.0020000
   67.95   44.71   89.90   0.0020000
   -1.28  137.65    0.46   0.0020000
  101.66   89.64   43.32   0.0020000
  155.32  135.34  179.40   0.0020000
   75.31   54.59    0.30   0.0020000
  178.29  137.57   -0.54   0.0020000
   69.10   46.28  179.96   0.0020000
 -146.82   90.75   43.08   0.0020000
  148.45  135.13  -90.61   0.0020000
 -110.84   90.42   45.26   0.0020000
  -59.77  135.22   90.93   0.0020000
   94.90  121.56  -92.40   0.0020000
  147.01   40.40  179.21   0.0020000
 -105.87   93.84  155.33   0.0020000
    9.61   89.90  -38.25   0.0020000
 -115.83   45.92   90.01   0.0020000
 -143.16   90.43   44.24   0.0020000
 -144.71   39.35  -90.45   0.0020000
  152.16   89.11  123.11   0.0020000
  -56.83   93.32   60.15   0.0020000
  161.03  133.26  179.38   0.0020000
 -169.42  129.90  -88.74   0.0020000
  142.69   46.99  179.66   0.0020000
  170.82  136.76   -0.57   0.0020000
   22.09   89.54 -132.54   0.0020000
  116.87   89.78  134.81   0.0020000
  -49.13  141.79    1.46   0.0020000
  -52.11  124.14 -179.20   0.0020000
  155.17  136.40   -0.58   0.0020000
  107.83   45.18  179.58   0.0020000
 -102.65   46.56  -89.73   0.0020000
  -61.50   41.50  -89.93   0.0020000
    4.31  134.45  -89.49   0.0020000
   68.56   52.01  -90.11   0.0020000
  -72.32  139.79  -89.47   0.0020000
   -0.19   46.06  -89.49   0.0020000
   94.66   43.26  -90.39   0.0020000
  -46.81   46.90   90.66   0.0020000
  -93.31   46.06  -89.71   0.0020000
  -10.24  135.25   90.60   0.0020000
 -136.93  136.78  179.68   0.0020000
 -155.60   43.60   89.84   0.0020000
  -77.30  134.35    0.34   0.0020000
   33.82  100.63  164.17   0.0020000
    9.14   89.73  -44.82   0.0020000
  121.77   44.25  179.94   0.0020000
  133.43  136.41   89.57   0.0020000
  116.90   89.67  132.79   0.0020000
  175.66  141.16  178.94   0.0020000
  130.81   89.70  -47.66   0.0020000
 -120.91   90.86  -51.60   0.0020000
  114.14   44.66  179.49   0.0020000
   40.28   88.11   55.82   0.0020000
 -131.63  136.88  -90.32   0.0020000
 -105.49  135.53  -89.84   0.0020000
  166.15   45.61  -90.59   0.0020000
  110.41   44.79   -0.45   0.0020000
   84.04   47.67  -89.79   0.0020000
   85.81   42.28  -90.30   0.0020000
 -122.43   44.75   90.01   0.0020000
 -163.50   90.67   40.42   0.0020000
 -170.70   41.83   -0.59   0.0020000
   66.50   46.69  179.90   0.0020000
 -146.70   90.39  -45.33   0.0020000
 -170.56  134.31  -90.41   0.0020000
 -131.92  134.24  179.97   0.0020000
 -127.35   47.28  179.71   0.0020000
  -91.10   90.38   45.52   0.0020000
 -157.01   90.30   45.62   0.0020000
  165.39  139.37   -0.89   0.0020000
  -45.23   89.63 -127.15   0.0020000
    6.64   89.45 -124.28   0.0020000
  130.30  136.30  -90.47   0.0020000
    1.02   45.86 -179.50   0.0020000
  -71.90   90.16   42.15   0.0020000
  -51.18   89.93 -137.02   0.0020000
 -168.95   44.49  179.60   0.0020000
   30.54  149.64  -92.88   0.0020000
   98.97  135.36  179.63   0.0020000
  109.26   89.27 -144.86   0.0020000
  -14.84  134.37 -179.40   0.0020000
  151.31  135.55  -90.60   0.0020000
  -15.24   88.11   52.14   0.0020000
 -100.05  130.69  179.83   0.0020000
 -150.27  134.79   -0.26   0.0020000
 -171.34  132.14  -89.93   0.0020000
  -40.55  142.40 -179.96   0.0020000
   17.19   48.94    0.37   0.0020000
  167.53  133.87   89.43   0.0020000
   77.33   48.91 -179.01   0.0020000
  146.98  135.68  179.42   0.0020000
  -90.91   44.86  -89.72   0.0020000
  160.01   90.28  -42.38   0.0020000
   67.09   29.19 -174.43   0.0020000
   85.96   46.49   90.57   0.0020000
 -148.15   45.09   -0.26   0.0020000
  -92.67   45.99 -179.72   0.0020000
 -147.71   90.58   37.66   0.0020000
   91.47  129.66   89.79   0.0020000
   55.29   89.72  -39.25   0.0020000
   -2.25   89.81   44.55   0.0020000
   -5.05   91.61  126.96   0.0020000
   63.06  159.55 -129.45   0.0020000
 -106.37  135.92   90.15   0.0020000
 -159.08   40.51 -179.65   0.0020000
   84.46   90.06  -50.98   0.0020000
  -66.83  127.86  179.26   0.0020000
  139.72   44.79   89.39   0.0020000
  152.88   37.84   -1.63   0.0020000
   73.17   89.59   45.19   0.0020000
  156.72   44.16   -0.63   0.0020000
  166.01   90.15 -137.59   0.0020000
  153.49   40.69  -91.38   0.0020000
  137.93  132.50  -91.04   0.0020000
  -66.34   45.63  -89.29   0.0020000
  -96.55   48.17   90.45   0.0020000
  157.49   89.81   52.95   0.0020000
  -60.12   52.04 -177.55   0.0020000
   31.95   89.69  134.02   0.0020000
 -170.74   90.04   47.31   0.0020000
   -2.25   89.85  -41.11   0.0020000
  -50.34  137.16    0.97   0.0020000
   64.73   45.26   89.93   0.0020000
    9.17  132.22   90.58   0.0020000
 -121.18   27.17 -169.86   0.0020000
  -48.78   90.15  135.65   0.0020000
  -20.96   45.18    0.61   0.0020000
   44.03  135.65 -179.92   0.0020000
  -89.63  136.07    0.30   0.0020000
 -167.06   37.64   90.85   0.0020000
  -25.24  133.45  -89.50   0.0020000
   57.28   89.55 -134.22   0.0020000
 -133.57   95.17  -60.83   0.0020000
  -11.39  139.36   90.76   0.0020000
  -99.05  135.45    0.22   0.0020000
  -70.41   87.46   34.37   0.0020000
  -82.92  137.44    0.39   0.0020000
  156.79   42.21  -91.36   0.0020000
   -0.02   89.73  136.19   0.0020000
   38.11   56.15   -0.06   0.0020000
 -156.05   90.27 -133.37   0.0020000
   26.44   44.55    0.34   0.0020000
  175.18   36.98 -179.60   0.0020000
  110.06   86.42 -151.67   0.0020000
  -64.89   43.76   90.47   0.0020000
  -97.53   89.33  146.57   0.0020000
  108.07   89.67  133.04   0.0020000
 -170.75  141.58  -91.34   0.0020000
 -127.81  129.65    0.67   0.0020000
 -136.91   51.04   89.00   0.0020000
   43.22   45.64   90.09   0.0020000
 -167.21  145.19   -2.44   0.0020000
 -165.21   90.29  -45.02   0.0020000
  -56.37  133.89    0.43   0.0020000
  106.96   74.52  -14.01   0.0020000
   34.07   89.61   46.13   0.0020000
   -5.07   89.89   45.84   0.0020000
 -122.64   90.69  -49.21   0.0020000
