TEXTURE AT STRAIN =    1.0000
   1.645   1.645   0.364  <-- length of average ellipsoid axes for phase
   37.57    0.00    0.00  <-- Euler angles of average ellipsoid axes for phase
B       500
   99.12  110.48   13.01   0.0020000
 -160.02   37.03   88.69   0.0020000
  156.33   22.74   53.74   0.0020000
  150.37   89.79   40.67   0.0020000
  132.42   61.82    3.56   0.0020000
   28.49   20.12 -135.07   0.0020000
    7.75   89.46  -38.01   0.0020000
 -136.34  147.59   -1.07   0.0020000
  -32.83   85.92  123.71   0.0020000
 -109.48  144.34 -177.36   0.0020000
  -64.88  150.58  -84.02   0.0020000
   57.03  158.73  102.46   0.0020000
   50.26   88.57   39.00   0.0020000
   20.47  120.93  176.91   0.0020000
   49.00  121.34   -2.91   0.0020000
  -80.36   66.41  173.43   0.0020000
  125.70   27.97 -177.90   0.0020000
   92.22   52.91    0.30   0.0020000
   83.35   56.12 -177.93   0.0020000
  -96.64   36.04  179.64   0.0020000
 -136.68  123.80   -2.04   0.0020000
   34.02  142.42  -90.41   0.0020000
  -77.81   21.76   47.11   0.0020000
 -155.02   24.11 -155.14   0.0020000
  129.73   89.72   54.64   0.0020000
  105.45   90.50  -52.51   0.0020000
  -64.47   94.23  -69.50   0.0020000
  -15.51   50.64  180.00   0.0020000
  -86.54   90.00 -116.30   0.0020000
  -13.90  132.38   -1.48   0.0020000
  109.49   88.22   58.53   0.0020000
  -21.91   36.09   -2.83   0.0020000
  168.28  126.59   91.32   0.0020000
  -80.69   68.53 -100.09   0.0020000
    2.79  146.75  -94.57   0.0020000
   27.24   56.39  -92.09   0.0020000
  -25.51  149.32 -172.15   0.0020000
 -109.78   50.96 -179.86   0.0020000
 -134.15   91.48  122.77   0.0020000
   38.91   61.32   87.10   0.0020000
 -101.43  136.07   88.89   0.0020000
  109.45   71.48  101.86   0.0020000
  153.69   61.64 -175.72   0.0020000
  -18.75   32.71   97.81   0.0020000
  162.41   54.39  -91.15   0.0020000
 -152.95   90.13 -137.59   0.0020000
  -82.46   46.18    0.38   0.0020000
  135.11   89.32  132.19   0.0020000
  -26.80   46.20 -179.34   0.0020000
  -52.59   41.56 -179.50   0.0020000
  -49.67   33.27  -88.25   0.0020000
  -52.24   91.11  147.41   0.0020000
   36.58   91.53 -135.57   0.0020000
 -145.91  152.19   -9.04   0.0020000
   83.42   81.50 -146.79   0.0020000
  -91.67  124.47   -1.06   0.0020000
   85.18  119.52  -85.48   0.0020000
    9.81   42.21    0.91   0.0020000
  -57.02   18.64  -30.20   0.0020000
   46.72   89.89  120.35   0.0020000
  148.73   25.36   -3.70   0.0020000
    0.26   94.35  151.27   0.0020000
 -105.99   89.32 -133.60   0.0020000
  148.96  156.02  -75.77   0.0020000
  -52.37   89.51 -135.26   0.0020000
 -175.97   85.41 -148.52   0.0020000
  -29.23  147.70 -175.94   0.0020000
   31.78  121.01 -172.04   0.0020000
 -135.48   40.08   89.77   0.0020000
 -113.08   86.76 -148.51   0.0020000
   36.52   88.68   32.93   0.0020000
  -13.13  112.77  171.72   0.0020000
   74.23   25.50  166.28   0.0020000
 -118.49   90.07  -50.60   0.0020000
   18.01  150.26   94.40   0.0020000
  -80.66  154.94    9.16   0.0020000
  -34.07  143.14 -178.87   0.0020000
  122.41   28.45   77.32   0.0020000
  136.04   56.19   89.28   0.0020000
   -5.44  157.01   37.16   0.0020000
  172.92   54.32  179.12   0.0020000
   60.25   31.30  179.33   0.0020000
  -76.92  146.18   91.49   0.0020000
  -40.19  120.36 -176.71   0.0020000
   42.67   17.63   45.38   0.0020000
  148.61   57.67 -178.63   0.0020000
  175.11   89.87  137.52   0.0020000
   53.30   90.20  120.43   0.0020000
   15.95  119.13   83.99   0.0020000
   22.97   88.99  -51.17   0.0020000
  171.96   35.61   -0.01   0.0020000
  120.09   33.89    0.84   0.0020000
   99.88   71.94  166.79   0.0020000
   72.84  146.27  -95.28   0.0020000
  -58.05  111.15   -7.49   0.0020000
 -130.99  152.57 -102.22   0.0020000
   81.20  144.43   92.64   0.0020000
   82.55   88.99  -55.62   0.0020000
   83.49   92.06  -56.42   0.0020000
  174.59   88.23   58.97   0.0020000
   67.19   88.58  -38.43   0.0020000
 -177.33   74.31   75.75   0.0020000
  142.90   53.79    1.59   0.0020000
  132.70  141.43   91.29   0.0020000
   38.51  108.15   85.05   0.0020000
  123.37   89.96  -46.81   0.0020000
   64.97   33.29    0.86   0.0020000
  -69.22   30.68  164.75   0.0020000
    5.34  120.96  -94.61   0.0020000
  -27.40   89.36 -124.20   0.0020000
  -28.72   35.02  -91.48   0.0020000
   61.55  122.94   88.00   0.0020000
  -89.21   93.05  128.28   0.0020000
 -139.16   64.30 -172.33   0.0020000
  106.11  116.66  -95.38   0.0020000
  151.22  132.57   -2.76   0.0020000
   92.08   82.70   25.85   0.0020000
  -27.05   34.02  -86.38   0.0020000
 -144.99  123.64    1.23   0.0020000
   41.31  138.67    0.02   0.0020000
   56.82   23.35  -66.73   0.0020000
   13.68  111.24   91.42   0.0020000
   63.43   49.54  179.96   0.0020000
  -95.81   58.59  175.71   0.0020000
  160.37  148.21    3.88   0.0020000
   68.48  137.61    0.23   0.0020000
   88.25   83.27  -73.94   0.0020000
  149.74  144.87  -86.53   0.0020000
 -178.31   51.78  -97.54   0.0020000
  -12.22  148.00  -90.91   0.0020000
    0.03   62.74    2.87   0.0020000
 -128.95   90.59  128.08   0.0020000
   46.86   99.18 -110.89   0.0020000
  -70.06   46.54  -89.16   0.0020000
 -170.73  131.24 -179.38   0.0020000
  -72.40   95.40  -28.72   0.0020000
  -82.68   54.55   89.95   0.0020000
  159.15   89.48  143.97   0.0020000
  -63.87   87.00   28.34   0.0020000
   40.94  126.49  178.78   0.0020000
  -94.86  147.71   93.64   0.0020000
  107.46  137.00   90.41   0.0020000
 -176.93   56.14   89.93   0.0020000
   42.89   32.79   88.02   0.0020000
 -164.91  120.92   87.71   0.0020000
  138.38   91.07   38.56   0.0020000
  147.80   52.97   91.02   0.0020000
   93.68   90.08  121.38   0.0020000
   29.40  101.34  -89.64   0.0020000
   95.10   88.95  130.09   0.0020000
 -147.53  130.87   87.93   0.0020000
  -48.62   91.56  -43.28   0.0020000
   56.91   58.17    2.13   0.0020000
 -134.62   87.93   57.86   0.0020000
 -106.54   89.05 -122.22   0.0020000
  143.47  143.88  179.01   0.0020000
 -129.14  137.13  -89.31   0.0020000
   -1.75  147.20    2.83   0.0020000
  164.30   95.57   66.37   0.0020000
  172.73   89.97 -142.97   0.0020000
   31.55  127.07   89.18   0.0020000
  123.99   47.00  179.85   0.0020000
 -128.03   91.43   35.20   0.0020000
 -178.48  145.82 -174.18   0.0020000
   67.15   86.87   58.60   0.0020000
   47.83   91.83   43.12   0.0020000
  -42.73   22.86  143.61   0.0020000
   82.25   22.35  155.60   0.0020000
  103.82   92.59  162.02   0.0020000
  121.10   59.26  175.50   0.0020000
  -20.24   92.17 -122.07   0.0020000
  -13.27  149.07   -3.93   0.0020000
 -171.76   33.48  179.95   0.0020000
 -103.24   90.23  -35.38   0.0020000
 -108.43  135.02    0.67   0.0020000
  143.50   90.26  -39.24   0.0020000
  161.98   91.26  132.68   0.0020000
 -162.96  127.95 -179.59   0.0020000
 -128.51   91.79  -57.07   0.0020000
  107.57   56.53  -89.43   0.0020000
  -29.33   44.28   89.80   0.0020000
  119.50   85.43 -156.24   0.0020000
 -134.65  124.47   91.41   0.0020000
 -120.63   85.41 -121.36   0.0020000
  118.36  107.31  105.37   0.0020000
  139.69   46.44    0.45   0.0020000
  161.81   61.18 -175.04   0.0020000
   52.25   94.37   61.70   0.0020000
 -168.21   90.93 -144.78   0.0020000
  156.83   88.10  -58.54   0.0020000
 -146.72   55.84  -88.69   0.0020000
  174.08   42.13  -86.44   0.0020000
  -41.83  138.57   -1.35   0.0020000
  -79.13   87.87   68.37   0.0020000
  -59.27   89.86  143.62   0.0020000
   71.61  120.25   -0.18   0.0020000
  136.52  147.93 -178.92   0.0020000
   48.40  153.57   84.89   0.0020000
   35.21  145.05 -178.20   0.0020000
  -99.30   47.85    0.67   0.0020000
  103.52  143.56  179.58   0.0020000
    4.45  129.58    2.97   0.0020000
   31.28   90.88 -127.59   0.0020000
  105.44   69.30 -100.32   0.0020000
  -42.36  116.61   -4.54   0.0020000
   51.85   88.96  -55.62   0.0020000
  140.62  141.80   -0.43   0.0020000
 -100.93  123.64   -0.00   0.0020000
   52.01   32.80   88.56   0.0020000
  -90.35  132.54  -87.72   0.0020000
  -87.90   50.06  -90.63   0.0020000
 -149.13   37.75    0.13   0.0020000
  -29.45  156.18 -115.30   0.0020000
   28.01   73.97  166.88   0.0020000
    1.74  158.40 -173.79   0.0020000
  103.56   89.81  -51.06   0.0020000
   21.28   91.06 -135.82   0.0020000
   46.85   30.48 -174.17   0.0020000
   18.57   74.68 -163.47   0.0020000
 -151.60   56.95  178.77   0.0020000
  120.89  150.22   -8.13   0.0020000
 -152.75   88.85   30.39   0.0020000
 -159.13   88.89 -140.41   0.0020000
  -74.34  142.92  -87.59   0.0020000
  -43.06   75.28  165.06   0.0020000
  145.38   88.30 -147.43   0.0020000
  -30.91  125.24 -179.72   0.0020000
  -12.13   80.24   21.70   0.0020000
  -93.97   34.51 -177.53   0.0020000
 -147.17   78.60  -98.04   0.0020000
  -61.68   65.66  -95.60   0.0020000
   -0.36   86.38   27.81   0.0020000
  169.97  152.50   87.05   0.0020000
  132.80   56.47   87.35   0.0020000
 -142.56  149.20  173.54   0.0020000
 -161.99   94.08  115.28   0.0020000
  174.98   95.30 -115.92   0.0020000
 -101.77   91.90  148.69   0.0020000
   48.66   86.40 -118.48   0.0020000
 -131.06   88.36 -155.37   0.0020000
   25.56   62.76   -1.25   0.0020000
   47.87   47.70  -90.03   0.0020000
   36.95  146.88   86.60   0.0020000
  -64.86  147.47  -89.67   0.0020000
  -30.66   65.63  -92.63   0.0020000
  -70.05  119.85   85.34   0.0020000
 -135.81   91.94 -147.56   0.0020000
   69.79  143.81 -177.35   0.0020000
  -93.10   95.13   59.45   0.0020000
  -80.84  120.78  179.21   0.0020000
  -95.65  119.87   90.25   0.0020000
  118.38   59.90  -89.85   0.0020000
  -92.98   55.20 -179.58   0.0020000
  -38.80   54.41  180.00   0.0020000
   27.43   43.87   92.06   0.0020000
 -170.94   32.26    4.40   0.0020000
  -91.25  136.86 -179.89   0.0020000
   20.51   91.00   36.76   0.0020000
  -25.54  147.37  -83.99   0.0020000
  121.92   90.73 -133.50   0.0020000
 -129.14   58.03 -178.47   0.0020000
  -81.13   88.59  -61.87   0.0020000
   -2.56  145.25   87.99   0.0020000
  161.59   40.99   90.53   0.0020000
 -104.23  143.07  179.48   0.0020000
   23.80   31.21  -81.27   0.0020000
  -34.70  145.10    0.87   0.0020000
 -102.95  147.36    0.42   0.0020000
 -151.13   90.17  -52.24   0.0020000
  -41.71   94.60 -118.19   0.0020000
  -50.25   91.25  130.63   0.0020000
 -128.83  144.97  -92.19   0.0020000
 -132.77   95.87  -62.21   0.0020000
  -88.32   90.86  129.82   0.0020000
 -101.08   96.06  126.12   0.0020000
  -17.72  133.52  -88.62   0.0020000
 -108.27  131.45   -0.56   0.0020000
 -167.46  122.65    1.66   0.0020000
  144.75  144.03  179.10   0.0020000
   59.40   93.74   53.57   0.0020000
 -133.89  131.82  -86.87   0.0020000
  148.43   88.45  -41.60   0.0020000
 -147.57  146.25 -176.52   0.0020000
   71.78   57.47   90.59   0.0020000
 -146.86  148.80 -178.06   0.0020000
  -98.82   91.52  -44.23   0.0020000
   54.52  126.10   90.55   0.0020000
  138.66   89.13   54.61   0.0020000
  -49.02   92.88 -148.37   0.0020000
    0.26   22.46 -147.50   0.0020000
  -53.11  135.01   88.81   0.0020000
  -28.68   34.70  176.99   0.0020000
   74.93   81.56 -156.38   0.0020000
  -65.71   49.78    0.48   0.0020000
  136.86  150.88  -86.14   0.0020000
  -25.72   57.56  176.60   0.0020000
  125.94   91.54 -146.92   0.0020000
 -112.85   85.24  151.49   0.0020000
  173.47  152.88  101.90   0.0020000
 -133.92  133.14  179.53   0.0020000
   28.42   55.81   -0.49   0.0020000
   66.92   35.41   92.11   0.0020000
  -48.65   32.53   87.51   0.0020000
 -155.12  123.39    0.03   0.0020000
  -49.98  160.43   37.60   0.0020000
  -38.21   90.23 -124.28   0.0020000
  -47.37   70.15  174.24   0.0020000
 -112.79   68.55  170.45   0.0020000
  155.12   95.46 -153.97   0.0020000
  -98.51  104.41   79.60   0.0020000
   30.45  125.51   91.57   0.0020000
  -56.01   91.11  132.93   0.0020000
 -154.09   46.58   90.92   0.0020000
 -144.49  134.27  178.85   0.0020000
 -111.90   42.63 -179.61   0.0020000
   58.97  102.10 -161.18   0.0020000
  -23.31   88.75   58.59   0.0020000
 -105.60   59.77   85.95   0.0020000
  -43.97   89.26 -146.29   0.0020000
 -173.67   90.53   30.96   0.0020000
  -19.18  147.14    3.03   0.0020000
  104.15   82.42 -111.48   0.0020000
  -46.92   88.96  148.45   0.0020000
   68.66  144.67 -174.66   0.0020000
  -10.88   32.32 -179.70   0.0020000
  -38.36   87.94 -113.71   0.0020000
  -30.37  137.41   91.23   0.0020000
    1.71   93.03   31.32   0.0020000
  110.52   73.04  -12.36   0.0020000
 -178.57   89.26   33.93   0.0020000
  -48.56   90.99   55.95   0.0020000
   46.58  106.67  -78.85   0.0020000
  139.40  150.12   86.21   0.0020000
 -116.65   42.29   -0.12   0.0020000
   25.31  124.83   89.57   0.0020000
 -116.91   59.31   91.10   0.0020000
  -38.37  147.49   93.86   0.0020000
   69.82   98.25 -157.20   0.0020000
  -12.13   91.50 -122.98   0.0020000
 -177.51   91.49  -35.85   0.0020000
  132.11   35.26    0.39   0.0020000
   57.29   96.32 -153.22   0.0020000
   68.44   43.50   88.21   0.0020000
   -3.12  145.96    0.73   0.0020000
   99.06   90.39   35.73   0.0020000
  154.78  137.33 -179.22   0.0020000
   66.79   67.28    6.38   0.0020000
  174.32  146.06    1.08   0.0020000
   55.98   56.87 -176.97   0.0020000
 -161.70   94.93   30.97   0.0020000
  147.81  135.92  -91.10   0.0020000
 -111.15   90.32   46.69   0.0020000
  -57.03  135.88   97.04   0.0020000
   89.46  107.90 -102.36   0.0020000
  155.17   31.32 -177.04   0.0020000
 -105.02   98.11  165.63   0.0020000
   22.03   94.45  -26.98   0.0020000
 -109.46   51.72   88.47   0.0020000
 -145.54   90.63   38.91   0.0020000
 -143.73   26.87 -103.79   0.0020000
  154.87   84.19  110.20   0.0020000
  -52.96  101.66   71.14   0.0020000
  160.33  125.50  179.64   0.0020000
 -157.73  114.46  -81.25   0.0020000
  131.91   56.70 -178.13   0.0020000
  171.05  144.17   -0.28   0.0020000
   22.83   90.00 -124.32   0.0020000
  117.62   89.56  135.34   0.0020000
  -54.51  151.07    3.53   0.0020000
  -42.76  110.82 -170.14   0.0020000
  157.69  144.11   -1.45   0.0020000
  108.74   47.83  179.00   0.0020000
 -116.78   57.37  -86.63   0.0020000
  -57.11   32.76  -88.61   0.0020000
    4.41  131.44  -89.77   0.0020000
   59.06   61.80  -87.70   0.0020000
  -64.09  150.07  -96.15   0.0020000
   -6.72   54.39  -88.37   0.0020000
   98.95   34.49  -88.34   0.0020000
  -40.92   55.51   89.18   0.0020000
  -94.64   52.34  -89.57   0.0020000
  -11.86  138.68   92.13   0.0020000
 -131.72  145.30  178.02   0.0020000
 -150.51   34.73   91.89   0.0020000
  -82.79  128.31   -1.13   0.0020000
   34.48  100.81  167.45   0.0020000
    8.86   90.42  -44.35   0.0020000
  124.69   34.79 -171.41   0.0020000
  126.92  145.35   92.45   0.0020000
  113.79   90.38  124.67   0.0020000
 -175.82  150.76  173.65   0.0020000
  129.42   90.11  -55.82   0.0020000
 -131.26   92.28  -61.01   0.0020000
  112.83   42.71  178.15   0.0020000
   33.62   80.85   68.48   0.0020000
 -123.32  146.81  -93.94   0.0020000
 -105.87  138.63  -89.18   0.0020000
  169.57   49.79  -91.56   0.0020000
  109.53   43.42    1.41   0.0020000
   67.93   59.88  -85.24   0.0020000
   89.63   33.65  -89.03   0.0020000
 -121.59   40.63   90.07   0.0020000
 -172.42   91.32   31.33   0.0020000
 -178.53   30.76   -7.05   0.0020000
   59.21   55.90 -178.65   0.0020000
 -148.15   90.53  -47.69   0.0020000
 -170.12  128.18  -90.21   0.0020000
 -128.07  127.51 -179.24   0.0020000
 -115.98   57.28  177.76   0.0020000
  -92.13   89.59   48.27   0.0020000
 -155.16   90.77   51.37   0.0020000
  173.56  149.99   -7.32   0.0020000
  -51.62   79.83 -111.46   0.0020000
    6.04   89.06 -112.45   0.0020000
  129.90  143.50  -90.22   0.0020000
   -4.92   53.50 -178.40   0.0020000
  -82.46   91.98   32.23   0.0020000
  -46.13   89.34 -145.66   0.0020000
 -165.94   38.80 -178.43   0.0020000
   20.07  162.06 -104.31   0.0020000
  100.98  140.01  178.02   0.0020000
  110.31   89.19 -155.08   0.0020000
  -10.75  129.89 -178.24   0.0020000
  151.86  139.59  -91.13   0.0020000
  -18.20   75.77   71.66   0.0020000
 -115.52  120.32  176.59   0.0020000
 -149.53  130.85   -0.20   0.0020000
 -156.19  121.15  -86.53   0.0020000
  -45.12  154.47  164.03   0.0020000
    1.50   60.34    4.52   0.0020000
  169.13  126.81   90.12   0.0020000
   64.49   64.44 -171.73   0.0020000
  145.63  140.41 -179.49   0.0020000
  -91.06   42.07  -90.05   0.0020000
  172.52   92.61  -31.66   0.0020000
   39.18   21.18 -143.35   0.0020000
   68.97   59.13   97.29   0.0020000
 -147.33   43.65   -0.27   0.0020000
  -87.60   52.51  178.92   0.0020000
 -138.97   87.98   27.96   0.0020000
  106.27  119.78   92.91   0.0020000
   68.88   93.88  -28.39   0.0020000
   -0.84   89.47   39.58   0.0020000
   -8.23  103.68  108.80   0.0020000
   54.37  158.87 -137.85   0.0020000
 -108.85  141.99   91.40   0.0020000
 -154.35   31.80 -178.70   0.0020000
   70.95   93.97  -61.76   0.0020000
  -80.78  117.09  175.46   0.0020000
  138.73   42.65   89.98   0.0020000
  146.00   28.03   -7.68   0.0020000
   75.27   91.09   48.25   0.0020000
  158.20   37.56    0.89   0.0020000
  157.41   91.32 -147.08   0.0020000
  144.96   30.08  -97.29   0.0020000
  122.09  120.59  -94.70   0.0020000
  -75.86   51.81  -85.35   0.0020000
 -110.81   58.90   93.13   0.0020000
  146.40   85.00   64.28   0.0020000
  -68.23   69.49 -167.81   0.0020000
   29.38   90.32  127.28   0.0020000
  179.15   88.29   57.29   0.0020000
    9.63   91.86  -31.45   0.0020000
  -59.27  148.41    6.73   0.0020000
   62.33   49.39   91.03   0.0020000
    9.28  124.16   90.20   0.0020000
 -149.60   21.55 -139.12   0.0020000
  -48.72   89.76  139.27   0.0020000
  -21.55   47.80    0.45   0.0020000
   46.53  141.93  179.01   0.0020000
  -84.14  144.13   -2.86   0.0020000
 -160.88   27.71   97.92   0.0020000
  -30.21  125.60  -90.70   0.0020000
   60.88   90.77 -127.70   0.0020000
 -135.47  104.40  -72.36   0.0020000
  -18.56  148.18   92.48   0.0020000
  -99.46  138.00    0.83   0.0020000
  -67.21   76.61   18.83   0.0020000
  -75.36  147.93   -4.08   0.0020000
  150.63   30.07  -99.81   0.0020000
  -10.06   87.82  145.32   0.0020000
   32.27   68.42    5.59   0.0020000
 -148.31   91.58 -123.73   0.0020000
   27.29   42.56   -0.10   0.0020000
  179.20   26.91 -170.80   0.0020000
  112.32   78.26 -162.32   0.0020000
  -57.82   33.68   94.24   0.0020000
 -102.91   81.48  159.11   0.0020000
  100.24   91.32  123.68   0.0020000
 -162.42  151.12  -96.38   0.0020000
 -116.96  120.35    1.98   0.0020000
 -124.20   60.57   87.26   0.0020000
   45.48   51.77   89.63   0.0020000
 -172.84  155.86  -17.52   0.0020000
 -165.77   90.18  -44.14   0.0020000
  -57.14  126.97    0.16   0.0020000
  106.14   76.01  -16.78   0.0020000
   43.33   91.93   55.47   0.0020000
    3.36   92.78   53.58   0.0020000
 -128.29   90.84  -57.87   0.0020000
