TEXTURE AT STRAIN =    1.0000
   1.046   2.336   0.409  <-- length of average ellipsoid axes for phase
 -154.08   90.00   90.00  <-- Euler angles of average ellipsoid axes for phase
B       500
   66.04  132.24    0.15   0.0020000
  168.19   25.40   76.57   0.0020000
  119.00   18.39   70.62   0.0020000
  124.15   87.14   52.31   0.0020000
  124.65   80.75    7.23   0.0020000
  -20.93    4.86  -88.82   0.0020000
  -52.51   80.26  -43.70   0.0020000
  165.80  164.41  -22.69   0.0020000
  -57.11   69.25  130.97   0.0020000
 -125.85  149.83  166.61   0.0020000
  -80.11  167.12  -90.32   0.0020000
    6.03  174.06   55.94   0.0020000
  -33.82   68.64   41.69   0.0020000
  -48.15  120.06  156.12   0.0020000
    0.16  117.73  -37.64   0.0020000
 -115.02   76.42 -176.84   0.0020000
   58.67    8.55 -108.50   0.0020000
   50.83   48.84   15.53   0.0020000
   57.66   58.95 -164.98   0.0020000
 -143.30   22.02 -149.23   0.0020000
  153.99  127.15  -41.57   0.0020000
  -29.60  155.68 -154.95   0.0020000
 -136.00    9.58   85.84   0.0020000
  133.04   20.01 -124.45   0.0020000
  124.05   88.21   61.23   0.0020000
  102.18  116.12  -42.24   0.0020000
  -60.74   86.20  -76.54   0.0020000
  -55.77   60.86 -172.26   0.0020000
 -109.64   94.09 -100.54   0.0020000
  -58.37  122.44  -69.09   0.0020000
  121.19   85.80   66.22   0.0020000
  -49.79   36.80   -6.07   0.0020000
  123.79  123.00  109.62   0.0020000
 -109.96   79.89 -101.48   0.0020000
  -63.02  136.67 -134.16   0.0020000
  -45.30   52.28  -92.53   0.0020000
  -40.96  152.88 -166.18   0.0020000
 -160.21   46.77 -141.41   0.0020000
 -174.72  109.48  106.58   0.0020000
  -50.19   70.63   80.57   0.0020000
 -160.47  142.84   16.85   0.0020000
  117.31   71.52   85.45   0.0020000
  125.33   75.52 -171.64   0.0020000
  -71.87   43.05  142.67   0.0020000
  123.98   63.42 -109.97   0.0020000
  130.02   94.72 -134.99   0.0020000
 -135.48   35.85   21.17   0.0020000
  124.24   82.86  126.65   0.0020000
  -60.01   50.23 -168.27   0.0020000
  -99.13   27.67 -131.83   0.0020000
 -125.76   17.02  -45.15   0.0020000
  -58.82   94.45  163.44   0.0020000
  -42.69  124.38 -149.37   0.0020000
  129.08  165.96  -60.63   0.0020000
   39.18   44.61  -98.04   0.0020000
 -118.44  115.34  -14.89   0.0020000
   61.87  104.53  -80.22   0.0020000
  -55.44   36.78   63.88   0.0020000
 -125.77    3.56   16.11   0.0020000
  -31.95   98.32  104.00   0.0020000
  107.95    6.45   22.41   0.0020000
  -55.29  108.12  163.49   0.0020000
 -124.77   61.80 -114.82   0.0020000
  117.39  172.33 -132.79   0.0020000
  -58.38   82.21 -116.82   0.0020000
  124.34   69.46 -114.98   0.0020000
  -45.45  157.67 -173.23   0.0020000
  -37.77  132.20 -157.55   0.0020000
  179.83   27.66  124.03   0.0020000
  167.92   62.33 -139.55   0.0020000
  -50.52   78.47   24.20   0.0020000
  -53.88  102.30  173.15   0.0020000
   49.66   12.51 -159.94   0.0020000
 -121.66   92.82  -46.96   0.0020000
   -3.36  165.70   48.08   0.0020000
 -117.61  172.54   -7.88   0.0020000
  -66.02  155.46  164.29   0.0020000
  119.49   37.90   70.83   0.0020000
  123.51   71.25   70.76   0.0020000
  -49.03  155.93    3.21   0.0020000
  125.03   66.79 -175.14   0.0020000
   15.24   14.18 -126.40   0.0020000
 -111.71  162.61   58.62   0.0020000
  -58.21  102.89  172.15   0.0020000
   -7.52    2.78   77.88   0.0020000
  124.86   75.67 -171.58   0.0020000
  126.38   84.37  129.44   0.0020000
   39.15   86.64   97.88   0.0020000
  -51.62  122.20   51.82   0.0020000
  -51.35   75.02  -57.42   0.0020000
  121.94   19.65    8.08   0.0020000
   48.94   17.99   80.03   0.0020000
   67.46   72.18  177.68   0.0020000
  -26.32  147.12 -147.14   0.0020000
  -56.60   95.38   -5.42   0.0020000
  139.68  158.33 -167.93   0.0020000
   65.75  152.02  116.94   0.0020000
   61.52   80.54  -49.84   0.0020000
   63.51  115.42  -67.72   0.0020000
  127.47   82.31   64.01   0.0020000
   65.19   79.44  -36.49   0.0020000
  126.70   80.95   72.78   0.0020000
  122.29   62.88   11.15   0.0020000
  117.71  142.69  107.38   0.0020000
  -45.12   96.02   87.67   0.0020000
  121.51   91.27  -57.40   0.0020000
    4.82   17.90   62.94   0.0020000
  -58.77   56.65  131.29   0.0020000
  -54.26  121.53 -129.08   0.0020000
  -54.47   86.92 -117.42   0.0020000
  -53.97   24.31  -57.46   0.0020000
   28.09  130.62   33.22   0.0020000
 -120.78  129.97  112.90   0.0020000
  146.27   59.37 -139.68   0.0020000
  113.99  119.03  -83.44   0.0020000
  117.73  127.43  -14.53   0.0020000
   65.37   70.37   23.12   0.0020000
 -109.35   27.90   -2.17   0.0020000
  134.93  118.61    5.53   0.0020000
  -11.88  152.03  -15.23   0.0020000
  -13.17   12.84  -37.67   0.0020000
  -52.75   98.91   89.21   0.0020000
   15.68   43.84 -135.88   0.0020000
 -122.84   52.48  136.14   0.0020000
  146.92  160.41   19.03   0.0020000
   25.19  147.19  -39.09   0.0020000
   70.16   86.51  -85.68   0.0020000
  127.46  142.21 -116.66   0.0020000
  129.65   50.16 -104.90   0.0020000
  -73.00  166.68 -143.14   0.0020000
  -52.70   78.99    3.10   0.0020000
 -175.44   99.33  135.99   0.0020000
  -41.71   95.45 -100.03   0.0020000
 -127.52   35.27  -46.06   0.0020000
  132.60  137.40  137.29   0.0020000
 -116.99  125.02  -54.56   0.0020000
 -121.77   48.49  125.05   0.0020000
  125.25   81.86  138.19   0.0020000
  -90.31   80.59   17.09   0.0020000
  -41.16  131.48  140.20   0.0020000
 -112.81  160.27   57.78   0.0020000
   76.19  150.33   67.54   0.0020000
  124.83   66.86  114.21   0.0020000
   17.85   19.63  109.73   0.0020000
  128.54  106.65   71.45   0.0020000
  124.47  102.37   50.35   0.0020000
  123.39   66.13  129.91   0.0020000
   69.11   86.31  109.90   0.0020000
  -50.04   92.23  -90.70   0.0020000
   68.33   80.14  136.84   0.0020000
  130.87  134.60   13.33   0.0020000
  -58.86  105.58  -67.51   0.0020000
   53.42   69.83   22.84   0.0020000
 -172.65   66.33   79.85   0.0020000
 -114.37   90.34 -109.33   0.0020000
   79.36  159.79  129.80   0.0020000
 -162.07  145.13 -105.69   0.0020000
  -23.50  160.09  -30.51   0.0020000
  124.73   92.51   64.26   0.0020000
  125.38   88.69 -137.12   0.0020000
  -44.11  129.64   52.39   0.0020000
  113.03   47.26 -161.58   0.0020000
 -119.88  101.15   31.97   0.0020000
  160.22  143.66  163.50   0.0020000
   61.87   75.61   74.74   0.0020000
  -22.35  122.68   29.86   0.0020000
  -82.08   19.25  151.97   0.0020000
   40.31    8.60 -150.30   0.0020000
   83.98   86.53  174.53   0.0020000
  117.27   61.38  135.82   0.0020000
  -55.28   98.19 -125.89   0.0020000
  -96.38  166.38  -46.55   0.0020000
  138.91   16.57 -129.93   0.0020000
 -111.68   90.85  -29.33   0.0020000
 -147.35  143.17  -31.97   0.0020000
  123.31   94.74  -53.63   0.0020000
  124.70  102.55  115.08   0.0020000
  131.11  128.56  156.18   0.0020000
 -153.95  114.00  -83.24   0.0020000
  114.38   62.39 -101.38   0.0020000
  -60.13   42.11  130.53   0.0020000
  116.14   91.81 -170.15   0.0020000
  154.78  132.61   95.84   0.0020000
 -145.85   51.01  -94.00   0.0020000
  120.31  108.90  107.11   0.0020000
  116.91   48.93   14.83   0.0020000
  123.81   66.92 -160.03   0.0020000
  -43.79  106.06   70.98   0.0020000
  127.62  102.54 -149.46   0.0020000
  124.72   85.60  -57.37   0.0020000
  138.53   55.32  -64.55   0.0020000
  122.48   59.01  -49.77   0.0020000
  -94.40  147.52  -43.67   0.0020000
  -94.95   92.77   81.71   0.0020000
  -57.90   87.11  139.80   0.0020000
   59.09  102.68  -17.44   0.0020000
   97.05  166.92  146.91   0.0020000
  -14.80  170.90   35.46   0.0020000
   12.81  154.76 -172.65   0.0020000
 -153.34   41.59   35.43   0.0020000
   44.16  158.37  156.22   0.0020000
  -50.09  133.09   10.57   0.0020000
  -49.85  107.97 -120.95   0.0020000
   73.43   80.79  -98.28   0.0020000
  -55.10   98.56   -6.59   0.0020000
  -31.18   77.86  -68.92   0.0020000
   89.67  157.30  -39.96   0.0020000
 -120.96  109.32  -17.95   0.0020000
   19.62   17.85  108.45   0.0020000
 -113.99  144.35  -62.09   0.0020000
 -123.99   40.56 -103.21   0.0020000
  152.88   23.99   32.53   0.0020000
 -104.21  162.66 -174.06   0.0020000
  -49.42   87.42  173.70   0.0020000
  -40.84  174.83  128.89   0.0020000
   81.62   92.41  -54.14   0.0020000
  -51.13  113.44 -129.23   0.0020000
  -37.77   17.11 -133.43   0.0020000
  -51.88   71.73 -170.42   0.0020000
  129.79   67.38  176.02   0.0020000
   27.78  157.12  -99.05   0.0020000
  128.61   82.07   13.12   0.0020000
  127.02   73.38 -127.75   0.0020000
  -65.84  138.85  -76.78   0.0020000
  -55.80   87.28 -177.52   0.0020000
  124.17   78.24 -167.15   0.0020000
  -55.75  107.55  170.77   0.0020000
  -54.65   79.01    8.46   0.0020000
 -171.83   27.54 -123.73   0.0020000
  130.78   86.67  -92.10   0.0020000
  -64.22   77.67 -101.74   0.0020000
  -54.13   81.64    7.41   0.0020000
  106.34  172.25   36.04   0.0020000
  123.09   68.05   70.58   0.0020000
  127.54  158.15  118.78   0.0020000
  129.86   99.50  109.51   0.0020000
  125.22   95.42 -120.52   0.0020000
 -115.18   91.94  156.03   0.0020000
   57.36   82.90  -97.65   0.0020000
  147.55   78.93 -166.04   0.0020000
  -50.60   81.10   -4.23   0.0020000
   -2.54   38.30  -57.73   0.0020000
  -52.87  153.32   -0.87   0.0020000
 -118.81  166.06 -128.62   0.0020000
  -55.47   80.61 -104.99   0.0020000
  -67.33  117.00   45.42   0.0020000
 -124.99  101.98 -149.45   0.0020000
   51.43  148.85  164.63   0.0020000
 -143.20  124.17   33.91   0.0020000
 -100.66  118.17 -178.31   0.0020000
 -110.47  102.64   91.71   0.0020000
  121.44   73.40 -106.25   0.0020000
 -119.99   65.69 -165.81   0.0020000
  -56.35   71.03 -169.89   0.0020000
  -53.54   43.80  177.32   0.0020000
  107.61   26.48   82.28   0.0020000
 -141.25  147.71  152.65   0.0020000
  -50.79  109.03   33.74   0.0020000
  -48.39  144.63 -111.23   0.0020000
  121.63  100.61 -131.42   0.0020000
 -176.78   64.40 -148.94   0.0020000
 -110.90   83.27  -74.25   0.0020000
  -73.37  152.14   36.66   0.0020000
  115.56   37.58  135.02   0.0020000
 -162.58  155.00  131.27   0.0020000
  -59.51   42.28  -49.15   0.0020000
  -73.36  161.67  -23.27   0.0020000
 -152.07  163.97  -40.75   0.0020000
  132.12   87.33  -57.09   0.0020000
  -58.83  100.22 -128.46   0.0020000
  -56.89  101.07  112.63   0.0020000
  145.53  153.32 -159.40   0.0020000
 -164.48  123.54  -92.34   0.0020000
 -113.87  106.66  118.04   0.0020000
 -134.14  132.32  100.96   0.0020000
  -56.14  133.71 -122.19   0.0020000
 -162.29  136.96  -43.04   0.0020000
  126.25  110.64    0.61   0.0020000
   82.14  160.27  132.47   0.0020000
  -12.17  127.06   24.51   0.0020000
 -160.25  136.44 -100.34   0.0020000
  124.62   74.39  -50.64   0.0020000
 -155.51  146.66 -160.18   0.0020000
   65.99   72.56   85.40   0.0020000
 -176.98  165.28  174.38   0.0020000
 -126.50  125.05  -68.03   0.0020000
   -0.51  126.61   71.39   0.0020000
  124.75   84.62   63.88   0.0020000
  -56.41  108.51 -137.33   0.0020000
  -62.87   12.02 -107.07   0.0020000
 -113.70  147.19   58.01   0.0020000
  -51.52   35.08  177.42   0.0020000
   62.77   78.90 -153.60   0.0020000
 -104.82   38.62   52.23   0.0020000
  110.48  169.61 -139.66   0.0020000
  -57.11   66.05 -173.26   0.0020000
  123.87  104.34 -134.10   0.0020000
 -112.85   70.20  148.53   0.0020000
  162.40  160.72   95.06   0.0020000
  164.42  145.57  163.42   0.0020000
  -48.23   63.04   -1.64   0.0020000
  -14.29   27.29  138.29   0.0020000
  -69.14   16.79   79.06   0.0020000
  130.43  113.25    0.80   0.0020000
 -102.81  175.97    6.79   0.0020000
  -55.32   90.96 -120.12   0.0020000
  -56.38   86.93 -176.32   0.0020000
 -128.19   62.23 -178.93   0.0020000
  124.60   99.03 -178.72   0.0020000
 -110.67   94.58   87.26   0.0020000
  -38.50  134.93   88.81   0.0020000
  -59.50  103.37  112.92   0.0020000
  129.15   41.53  171.00   0.0020000
  136.11  142.39  135.09   0.0020000
 -164.07   33.10 -132.55   0.0020000
   59.78  109.53 -164.62   0.0020000
  -54.01   85.89   63.70   0.0020000
 -147.30   60.07   86.73   0.0020000
  -56.45   84.46 -164.28   0.0020000
  127.13   89.17   14.27   0.0020000
  -39.21  159.31   13.05   0.0020000
  112.80   89.92  -99.63   0.0020000
  -56.56   85.89  174.78   0.0020000
   56.75  144.20  170.10   0.0020000
  -60.37   13.50 -169.61   0.0020000
  -55.62   88.85 -111.28   0.0020000
  -59.59  139.48  108.51   0.0020000
  -53.26  108.53   14.85   0.0020000
  102.00   67.35  -16.91   0.0020000
  125.98   80.45   20.58   0.0020000
  -57.72   95.10   55.01   0.0020000
  -41.37   99.66  -87.49   0.0020000
   55.90  168.05   46.13   0.0020000
 -160.60   32.48   44.45   0.0020000
  -49.58  117.39   69.05   0.0020000
 -114.92   75.95   87.32   0.0020000
  -53.35  157.07   58.04   0.0020000
   63.26  111.99 -171.49   0.0020000
  -54.67   96.87 -124.21   0.0020000
  124.55  104.94  -58.83   0.0020000
   68.51   18.73   61.05   0.0020000
   63.38  106.28 -143.50   0.0020000
   41.10   38.03   84.46   0.0020000
  -44.09  162.28  -52.96   0.0020000
   98.53  100.47   31.18   0.0020000
  122.75  137.37  172.80   0.0020000
   61.95   83.45   14.27   0.0020000
  143.75  160.81  -44.36   0.0020000
    1.05   52.95 -129.96   0.0020000
  135.55  126.14   21.58   0.0020000
  115.58  134.61 -135.64   0.0020000
 -117.08   87.69   45.04   0.0020000
  -56.84  117.24  110.20   0.0020000
   70.32  101.13  -98.29   0.0020000
   74.53   13.55 -124.47   0.0020000
 -116.46   90.79  174.23   0.0020000
  -52.61  103.42   -9.51   0.0020000
 -145.42   45.27   88.21   0.0020000
  132.68  102.56   37.91   0.0020000
 -158.17   22.92  -75.28   0.0020000
  124.37   88.09  110.67   0.0020000
  -59.79  100.83   61.84   0.0020000
  124.64  109.51  171.40   0.0020000
  129.04  115.12  -63.31   0.0020000
  123.17   69.07 -169.23   0.0020000
  123.62  160.24   -6.13   0.0020000
  -50.08   90.09 -118.47   0.0020000
  119.94   86.86  131.24   0.0020000
  -86.56  170.24  -36.87   0.0020000
  -56.74   96.38  175.98   0.0020000
   89.62  158.34  -40.08   0.0020000
  101.36   39.00  149.07   0.0020000
 -170.48   51.04  -17.36   0.0020000
 -128.93   15.42  -41.85   0.0020000
  -54.36  131.91 -119.49   0.0020000
   65.37   77.58  -89.46   0.0020000
 -154.85  162.02 -163.04   0.0020000
  -55.29   64.79  -53.78   0.0020000
   22.95   25.01  -16.51   0.0020000
  -56.70   70.03   70.72   0.0020000
 -137.01   44.35  -39.91   0.0020000
  -50.84  140.76   66.65   0.0020000
  148.22  155.94  142.17   0.0020000
  128.40   25.56  179.44   0.0020000
 -129.46  134.57  -17.03   0.0020000
  -43.94   96.01  178.97   0.0020000
  -53.21   96.78  -51.30   0.0020000
   42.63   40.88  -97.33   0.0020000
  117.17  147.76  107.29   0.0020000
  118.91   92.50  114.74   0.0020000
   96.14  167.04   86.00   0.0020000
  124.01   90.76  -61.69   0.0020000
 -123.39   92.32  -81.62   0.0020000
  116.43   46.90  135.18   0.0020000
  -44.46   72.76   73.12   0.0020000
  139.51  150.30 -164.65   0.0020000
 -142.06  148.24  -88.22   0.0020000
  124.36   50.33  -61.41   0.0020000
   42.14   36.54   82.96   0.0020000
   35.56   53.10  -34.28   0.0020000
   22.35   19.25  -14.56   0.0020000
 -169.13   29.36  113.20   0.0020000
  127.56   93.26   16.44   0.0020000
  173.60   23.75   11.59   0.0020000
    9.57   57.28 -140.29   0.0020000
  132.53   92.58  -46.76   0.0020000
  126.25  125.77 -115.42   0.0020000
 -173.91  129.27 -169.47   0.0020000
 -159.13   55.51  155.47   0.0020000
 -115.24   75.64   58.95   0.0020000
  129.40  101.56   58.78   0.0020000
   81.72  162.37  -48.15   0.0020000
  -55.98   79.59 -111.15   0.0020000
  -52.98   87.18 -105.26   0.0020000
   78.16  160.44 -111.44   0.0020000
  -56.24   60.30 -115.83   0.0020000
  -64.21  107.48   38.77   0.0020000
  -56.67   83.00 -162.32   0.0020000
  121.97   41.16 -111.82   0.0020000
  -24.97  176.16 -155.27   0.0020000
   31.83  143.72  147.40   0.0020000
  108.24  101.28 -167.83   0.0020000
  -55.05  126.35  178.68   0.0020000
  105.84  146.85 -144.20   0.0020000
  -54.83   72.23   67.16   0.0020000
 -116.07  101.24  158.46   0.0020000
  143.19  140.49  -34.27   0.0020000
  127.94  116.88  -68.51   0.0020000
 -133.03  162.96   97.91   0.0020000
  -53.65   65.77   17.73   0.0020000
  123.84  116.53   56.11   0.0020000
   51.79   62.22 -159.38   0.0020000
  115.53  148.85  165.66   0.0020000
 -140.20   30.67  -33.90   0.0020000
  124.23  106.14  -19.46   0.0020000
  -14.65    7.23  -95.33   0.0020000
   13.80   50.10  162.15   0.0020000
  158.75   30.72   23.05   0.0020000
 -127.47   42.80 -166.85   0.0020000
  131.99   79.41   11.18   0.0020000
   71.14  103.81   98.04   0.0020000
    3.12  102.71  -27.70   0.0020000
  -54.70   82.69   51.22   0.0020000
  -54.08  108.69  113.61   0.0020000
    2.07  172.45  172.17   0.0020000
 -137.38  150.85   95.69   0.0020000
  145.96   14.42 -136.80   0.0020000
   66.67   94.99  -75.54   0.0020000
  -67.06  102.63  163.79   0.0020000
  104.68   32.78   85.66   0.0020000
  133.51   12.69   -3.76   0.0020000
   62.92  100.44   38.05   0.0020000
   99.20   26.65   30.68   0.0020000
  123.97  100.86 -171.37   0.0020000
  135.25   19.66  -66.81   0.0020000
  121.56  110.60 -132.01   0.0020000
 -135.12   44.41  -39.76   0.0020000
 -136.92   53.15  138.47   0.0020000
  125.45   83.18   65.83   0.0020000
  -64.02   66.39 -162.87   0.0020000
  -46.49   94.93  126.20   0.0020000
  127.65   79.04   61.06   0.0020000
  -53.61  100.81  -12.24   0.0020000
  -60.19  143.10  -10.33   0.0020000
    4.77   43.58  114.20   0.0020000
  -54.57  115.31   69.48   0.0020000
  160.01    8.76  -90.19   0.0020000
  -56.01   85.58  130.22   0.0020000
  -57.64   54.83    9.66   0.0020000
  -27.98  153.32  147.68   0.0020000
 -161.93  144.06  -45.35   0.0020000
  118.24   11.88  131.87   0.0020000
  -56.33  110.28 -128.88   0.0020000
   -1.30  111.32 -139.76   0.0020000
  158.37  121.44  -70.97   0.0020000
  -44.14  165.13   66.45   0.0020000
 -137.37  148.09  -23.82   0.0020000
  -69.77   64.92   22.12   0.0020000
 -161.46  154.93  -47.69   0.0020000
  131.67   32.11  -67.18   0.0020000
  -55.59   67.11  151.81   0.0020000
  -43.26   79.99   -3.91   0.0020000
  129.24  102.82 -117.74   0.0020000
  -23.41   29.69   26.22   0.0020000
   95.51   10.98  -85.25   0.0020000
  113.39   89.59 -169.34   0.0020000
 -144.97   32.88  150.16   0.0020000
 -115.71   78.24  175.26   0.0020000
  101.15  118.44  116.07   0.0020000
  113.87  167.70 -136.22   0.0020000
 -175.27  111.81   16.44   0.0020000
  139.92   66.87   92.78   0.0020000
  -11.18   44.55  124.07   0.0020000
  110.54  170.34  -79.67   0.0020000
  127.87   88.01  -47.60   0.0020000
  -60.18  114.88  -13.27   0.0020000
  103.64   66.66  -23.26   0.0020000
  -46.16  119.32   55.08   0.0020000
  -55.05  114.97   50.73   0.0020000
 -128.33   93.26  -77.79   0.0020000
TEXTURE AT STRAIN =    2.0000
   1.133   3.874   0.228  <-- length of average ellipsoid axes for phase
 -161.94   90.00   90.00  <-- Euler angles of average ellipsoid axes for phase
B       500
   43.45  145.87  -19.63   0.0020000
  126.11   19.55   71.73   0.0020000
   99.86   11.21   39.50   0.0020000
  122.83   88.97   58.31   0.0020000
  123.09   82.46    6.21   0.0020000
  -47.08    3.16 -115.62   0.0020000
  -56.09   81.06  -49.86   0.0020000
  133.96  168.90   -6.46   0.0020000
  -58.26   74.04  131.73   0.0020000
 -151.30  160.87  144.92   0.0020000
 -103.73  172.66  -62.69   0.0020000
  -18.83  175.39   82.23   0.0020000
  -57.21   74.98   58.23   0.0020000
  -57.41  112.81  169.29   0.0020000
  -54.30  118.18  -53.07   0.0020000
 -119.84   76.98 -165.48   0.0020000
   27.15    5.21 -126.02   0.0020000
   17.21   41.64   40.35   0.0020000
   23.68   47.34 -145.60   0.0020000
 -178.99   12.76 -136.82   0.0020000
  121.99  117.49  -62.71   0.0020000
  -61.91  160.60 -138.97   0.0020000
 -171.84    6.43   76.84   0.0020000
  111.85   13.78 -152.72   0.0020000
  122.97   88.48   60.76   0.0020000
  110.16  119.84  -21.00   0.0020000
  -60.87   85.55  -67.30   0.0020000
  -58.35   68.39 -168.62   0.0020000
 -112.85   96.02  -99.64   0.0020000
  -59.50  115.26  -71.71   0.0020000
  121.39   86.17   63.77   0.0020000
  -66.31   37.85   13.35   0.0020000
  120.97  115.27  108.37   0.0020000
 -113.57   83.17  -95.94   0.0020000
  -65.55  135.70 -135.91   0.0020000
  -58.84   62.13 -108.68   0.0020000
  -67.07  157.79 -148.11   0.0020000
  162.92   31.87 -117.09   0.0020000
  127.99  113.12  110.25   0.0020000
  -56.48   74.53   71.46   0.0020000
  164.33  157.04   -6.93   0.0020000
  119.09   72.57   74.59   0.0020000
  123.16   78.78 -171.46   0.0020000
  -77.35   32.82  147.92   0.0020000
  121.92   69.78 -108.94   0.0020000
  124.30   95.00 -128.60   0.0020000
 -160.15   23.92   41.83   0.0020000
  122.96   83.98  125.11   0.0020000
  -61.67   56.66 -166.86   0.0020000
 -126.40   15.29 -109.20   0.0020000
 -161.04    9.88  -34.67   0.0020000
  -59.06   94.15  169.92   0.0020000
  -57.74  115.18 -131.24   0.0020000
  107.05  171.23  -31.49   0.0020000
   10.11   38.62  -74.57   0.0020000
 -129.52  122.21  -16.21   0.0020000
   61.76  100.88  -85.72   0.0020000
  -67.07   36.30   76.80   0.0020000
 -161.42    2.70   -0.98   0.0020000
  -55.07   97.10  111.74   0.0020000
   88.71    3.71  -11.69   0.0020000
  -57.33  105.23  168.83   0.0020000
 -166.93   54.19 -102.69   0.0020000
   90.61  175.42 -106.56   0.0020000
  -58.43   84.26 -114.13   0.0020000
  122.35   75.10 -110.04   0.0020000
  -68.24  163.90 -147.28   0.0020000
  -59.77  122.25  177.82   0.0020000
  133.67   19.44  125.82   0.0020000
  123.36   68.00 -122.51   0.0020000
  -56.01   79.60   14.67   0.0020000
  -56.42   99.46  172.84   0.0020000
   16.18    7.64 -165.54   0.0020000
 -120.21   94.95  -45.49   0.0020000
  -38.18  169.62   61.41   0.0020000
 -148.61  175.53   11.89   0.0020000
  -84.62  165.05 -173.71   0.0020000
  112.14   35.37   78.20   0.0020000
  122.14   75.35   70.65   0.0020000
  -70.32  162.64   28.57   0.0020000
  122.47   73.28 -169.74   0.0020000
  -20.32    9.39 -133.99   0.0020000
 -142.64  170.08   49.55   0.0020000
  -58.48  100.13  171.48   0.0020000
  -38.23    1.73   55.24   0.0020000
  122.97   78.85 -171.40   0.0020000
  123.86   84.53  125.12   0.0020000
   -5.52   91.43   96.99   0.0020000
  -57.65  113.62   49.80   0.0020000
  -56.11   80.13  -52.38   0.0020000
  103.13   12.27  -21.15   0.0020000
   16.07   10.64   91.50   0.0020000
   59.74   70.46 -169.12   0.0020000
  -63.46  147.25 -144.88   0.0020000
  -57.43   94.61   -3.94   0.0020000
  114.02  164.31 -144.88   0.0020000
   37.80  163.82   94.42   0.0020000
   60.09   82.45  -43.51   0.0020000
   45.01  128.64  -77.29   0.0020000
  124.15   84.16   64.18   0.0020000
   64.55   82.60  -33.67   0.0020000
  123.83   81.73   67.68   0.0020000
  121.20   68.97   11.54   0.0020000
  109.15  148.11   98.72   0.0020000
  -56.70   96.87   77.32   0.0020000
  121.59   90.45  -60.50   0.0020000
  -33.58   12.07   56.87   0.0020000
  -59.94   63.71  132.36   0.0020000
  -58.07  113.69 -130.66   0.0020000
  -56.36   87.63 -117.17   0.0020000
  -74.14   16.43  -79.77   0.0020000
   -0.19  136.31   14.97   0.0020000
 -147.39  142.08   90.69   0.0020000
  122.39   68.17 -118.94   0.0020000
  117.06  115.73  -75.11   0.0020000
  117.88  121.86  -13.83   0.0020000
   64.06   75.34   27.50   0.0020000
 -137.23   15.90   21.00   0.0020000
  122.83  108.41   -7.90   0.0020000
  -55.39  157.81  -12.94   0.0020000
  -41.83    9.00  -57.38   0.0020000
  -57.15  100.61   84.51   0.0020000
  -22.82   28.36 -110.25   0.0020000
 -151.09   39.78  151.96   0.0020000
  118.93  165.77   40.13   0.0020000
   -9.39  160.84  -59.69   0.0020000
   67.89   85.57  -85.73   0.0020000
  113.78  141.02 -133.96   0.0020000
  120.70   58.68 -109.25   0.0020000
  -94.71  172.31 -113.02   0.0020000
  -56.09   82.45    6.44   0.0020000
  128.14   94.88  135.87   0.0020000
  -56.23   93.96 -109.79   0.0020000
 -151.19   23.38  -25.65   0.0020000
  115.83  128.24  162.55   0.0020000
 -134.38  137.96  -74.55   0.0020000
 -147.90   36.54  148.93   0.0020000
  123.09   82.17  131.22   0.0020000
  -77.61   81.47   18.30   0.0020000
  -59.87  121.21  117.35   0.0020000
 -143.46  168.80   41.93   0.0020000
   49.38  163.13   44.20   0.0020000
  121.61   73.79  127.33   0.0020000
  -20.47   12.32  109.96   0.0020000
  122.61  101.23   57.68   0.0020000
  122.85   99.82   50.81   0.0020000
  121.84   71.78  131.15   0.0020000
   64.46   82.85  113.63   0.0020000
  -56.40   93.60  -97.43   0.0020000
   65.14   83.25  142.43   0.0020000
  117.31  125.26   -4.81   0.0020000
  -58.93  101.97  -69.65   0.0020000
   13.34   65.38   30.97   0.0020000
  130.55   57.80   93.56   0.0020000
 -116.57   91.58 -106.61   0.0020000
   48.99  168.92  114.07   0.0020000
  161.56  158.97 -127.05   0.0020000
  -56.35  164.92  -13.85   0.0020000
  123.21   90.93   59.51   0.0020000
  122.87   89.84 -128.41   0.0020000
  -58.16  119.27   50.40   0.0020000
  113.72   47.59 -163.04   0.0020000
 -117.85   98.70   30.47   0.0020000
  117.15  141.58  165.15   0.0020000
   60.53   79.00   82.06   0.0020000
  -57.95  115.83    4.19   0.0020000
 -108.33   10.93  141.58   0.0020000
    8.26    5.54 -166.03   0.0020000
   94.47   76.23  169.62   0.0020000
  118.79   66.31  133.26   0.0020000
  -56.83   96.60 -125.33   0.0020000
 -124.39  172.26  -29.19   0.0020000
  117.42   11.43 -158.61   0.0020000
 -112.94   90.31  -29.16   0.0020000
 -175.13  154.75  -54.41   0.0020000
  122.27   92.50  -60.70   0.0020000
  122.95   99.12  111.92   0.0020000
  120.50  119.76  168.51   0.0020000
  173.27  114.69  -75.62   0.0020000
  117.41   66.26 -105.69   0.0020000
  -65.27   44.40  135.47   0.0020000
  118.08   91.71 -176.66   0.0020000
  118.87  122.81   97.92   0.0020000
 -179.89   51.28  -76.59   0.0020000
  120.59  105.12  107.66   0.0020000
  116.84   53.20   14.16   0.0020000
  121.98   70.57 -168.26   0.0020000
  -56.36   99.98   59.37   0.0020000
  123.40  101.97 -138.23   0.0020000
  123.27   86.49  -57.49   0.0020000
  122.98   66.70  -51.84   0.0020000
  120.98   65.99  -48.52   0.0020000
 -119.03  161.52  -66.05   0.0020000
  -81.31   98.78   83.92   0.0020000
  -58.69   87.31  132.68   0.0020000
   59.54   99.61  -23.59   0.0020000
   68.48  172.39  166.87   0.0020000
  -37.40  173.31   62.97   0.0020000
  -30.96  164.21 -176.07   0.0020000
  171.98   28.11   61.36   0.0020000
    9.77  167.57  140.51   0.0020000
  -60.65  123.88   -7.71   0.0020000
  -56.06  101.71 -127.17   0.0020000
   68.85   83.79  -94.48   0.0020000
  -56.76   96.97   -5.68   0.0020000
  -55.77   83.90  -62.04   0.0020000
   62.46  167.61  -54.31   0.0020000
 -121.57  105.37  -24.63   0.0020000
  -17.95   11.29  107.21   0.0020000
 -137.84  156.45  -83.33   0.0020000
 -145.78   28.96  -90.84   0.0020000
  119.31   19.04   17.71   0.0020000
 -133.78  170.21 -177.70   0.0020000
  -55.54   89.65  179.19   0.0020000
  -55.76  176.49  167.14   0.0020000
   92.78  103.26  -48.50   0.0020000
  -56.62  106.95 -129.96   0.0020000
  -62.01   11.77 -158.46   0.0020000
  -56.43   76.71 -169.96   0.0020000
  123.17   75.21 -172.70   0.0020000
  -10.57  166.55 -106.51   0.0020000
  124.23   82.57    7.35   0.0020000
  122.87   79.00 -115.91   0.0020000
  -69.53  143.11  -80.16   0.0020000
  -56.97   87.87 -177.28   0.0020000
  122.72   79.82 -170.97   0.0020000
  -57.46  103.52  170.05   0.0020000
  -56.69   81.35    8.16   0.0020000
  142.77   17.74 -119.70   0.0020000
  123.82   87.63  -99.91   0.0020000
  -61.59   78.87 -106.31   0.0020000
  -56.38   83.30    6.66   0.0020000
   77.18  175.42   59.58   0.0020000
  121.81   73.05   71.16   0.0020000
  106.68  165.63  144.48   0.0020000
  124.31   97.58  112.78   0.0020000
  123.45   93.59 -123.47   0.0020000
 -115.26   89.49  155.78   0.0020000
   59.88   85.93  -95.58   0.0020000
  124.92   81.82 -173.50   0.0020000
  -55.87   85.10    2.75   0.0020000
  -52.90   30.14  -46.39   0.0020000
  -71.87  160.43   15.72   0.0020000
 -151.09  171.79 -125.46   0.0020000
  -57.09   81.35 -110.06   0.0020000
  -63.51  113.06   45.37   0.0020000
 -121.28  100.03 -150.56   0.0020000
   25.28  160.82  142.88   0.0020000
  175.59  118.57   27.72   0.0020000
 -112.85  135.65 -177.22   0.0020000
 -112.46  100.26   90.35   0.0020000
  121.22   76.29 -108.80   0.0020000
 -140.45   52.41 -157.63   0.0020000
  -57.84   75.53 -168.73   0.0020000
  -62.24   50.87 -168.35   0.0020000
   87.86   15.58   75.33   0.0020000
 -167.29  159.11  131.65   0.0020000
  -56.52  106.33   47.11   0.0020000
  -66.46  144.63 -132.60   0.0020000
  121.49   98.92 -129.55   0.0020000
  126.59   62.88 -133.57   0.0020000
 -115.66   78.09  -67.99   0.0020000
  -92.83  163.66   35.21   0.0020000
  108.33   31.05  142.31   0.0020000
  159.05  164.81  124.75   0.0020000
  -64.91   45.12  -44.89   0.0020000
  -95.06  169.38    3.90   0.0020000
  171.94  169.97  -39.83   0.0020000
  124.66   87.70  -58.59   0.0020000
  -58.73   98.35 -127.59   0.0020000
  -57.73   98.80  112.65   0.0020000
  115.28  158.26 -143.51   0.0020000
  142.89  126.60  -96.72   0.0020000
 -119.96  106.25  105.72   0.0020000
 -168.37  136.92   76.70   0.0020000
  -61.05  126.25 -131.66   0.0020000
  160.23  151.79  -69.05   0.0020000
  122.69  103.84   -9.00   0.0020000
   52.24  169.17  119.40   0.0020000
  -57.31  121.74    1.19   0.0020000
  164.04  150.47 -126.08   0.0020000
  122.80   77.81  -50.69   0.0020000
  172.22  159.59  177.95   0.0020000
   64.95   76.74   88.53   0.0020000
  148.00  169.90 -174.98   0.0020000
 -159.99  133.34  -92.25   0.0020000
  -54.59  131.84   57.53   0.0020000
  123.26   85.62   63.37   0.0020000
  -57.83  105.72 -131.59   0.0020000
  -87.42    7.18 -134.58   0.0020000
 -138.59  159.20   35.76   0.0020000
  -67.80   33.08 -164.33   0.0020000
   63.55   81.70 -151.67   0.0020000
 -128.51   24.28   74.32   0.0020000
   83.80  173.87 -114.02   0.0020000
  -58.48   72.37 -168.46   0.0020000
  122.47  101.97 -130.99   0.0020000
 -114.58   73.69  148.21   0.0020000
  127.98  165.89  109.01   0.0020000
  119.69  147.97  159.51   0.0020000
  -56.96   72.54    9.17   0.0020000
  -55.49   21.35  133.87   0.0020000
  -93.22    9.89   54.00   0.0020000
  123.26  104.94   -8.94   0.0020000
 -128.76  177.83   34.08   0.0020000
  -56.72   90.78 -120.00   0.0020000
  -57.27   87.44 -176.71   0.0020000
 -164.38   51.92  175.36   0.0020000
  122.95   95.83  175.29   0.0020000
 -112.47   94.86   87.08   0.0020000
  -60.60  124.61  107.07   0.0020000
  -59.18  100.36  111.23   0.0020000
  116.95   47.76 -170.30   0.0020000
  114.82  138.12  110.71   0.0020000
  154.84   19.50 -119.35   0.0020000
   59.55  111.71 -161.77   0.0020000
  -56.19   86.76   63.62   0.0020000
  173.35   64.89   88.42   0.0020000
  -57.62   84.35 -170.35   0.0020000
  123.70   87.94    6.52   0.0020000
  -64.52  164.82   37.39   0.0020000
  115.90   93.84 -104.12   0.0020000
  -57.55   87.93 -179.06   0.0020000
   33.35  156.21  149.62   0.0020000
  -83.88    8.13  162.40   0.0020000
  -56.98   88.02 -116.01   0.0020000
  -65.40  138.35  104.49   0.0020000
  -58.18  103.66   -0.85   0.0020000
  110.54   64.01  -39.08   0.0020000
  123.33   80.95   12.97   0.0020000
  -58.01   94.33   56.23   0.0020000
  -55.54   98.47  -78.26   0.0020000
   19.67  172.61   49.47   0.0020000
  160.93   18.89   60.55   0.0020000
  -57.70  108.65   53.72   0.0020000
 -115.13   78.74   89.41   0.0020000
  -72.64  164.49   85.26   0.0020000
   52.38  124.65  176.08   0.0020000
  -56.51   95.43 -124.15   0.0020000
  122.50  100.02  -67.28   0.0020000
   37.80   10.62   74.28   0.0020000
   63.17  102.41 -147.61   0.0020000
   16.35   28.11  104.83   0.0020000
  -65.19  167.88  -24.03   0.0020000
  108.89  102.60   36.65   0.0020000
  116.32  132.50  166.14   0.0020000
   61.42   86.00   18.14   0.0020000
  117.52  166.32  -21.44   0.0020000
  -54.34   46.26 -116.50   0.0020000
  119.70  115.35   36.07   0.0020000
  114.16  133.39 -136.44   0.0020000
 -117.40   85.55   44.43   0.0020000
  -58.45  110.80  108.74   0.0020000
   67.36  101.89  -97.38   0.0020000
   44.46    7.79 -135.92   0.0020000
 -118.09   90.32  172.16   0.0020000
  -56.14  100.54   -7.92   0.0020000
 -178.52   38.07  111.56   0.0020000
  124.24  100.53   47.42   0.0020000
  161.10   13.78  -70.96   0.0020000
  122.89   89.78  117.09   0.0020000
  -59.46   97.63   55.13   0.0020000
  122.54  104.49  169.06   0.0020000
  123.13  106.95  -70.15   0.0020000
  121.89   73.77 -168.93   0.0020000
  102.56  167.65   19.97   0.0020000
  -55.44   89.95 -119.13   0.0020000
  120.51   86.76  125.82   0.0020000
 -111.55  174.49   -9.89   0.0020000
  -57.51   95.07  175.93   0.0020000
   62.10  168.13  -52.15   0.0020000
   86.66   23.70  162.89   0.0020000
  142.94   35.14   -3.51   0.0020000
 -165.03    9.18  -37.22   0.0020000
  -60.05  123.23 -130.80   0.0020000
   65.34   79.48  -88.80   0.0020000
  168.50  168.85 -164.06   0.0020000
  -57.84   71.76  -48.85   0.0020000
  -12.74   14.96   -5.27   0.0020000
  -58.05   74.68   71.54   0.0020000
 -167.83   37.22  -15.51   0.0020000
  -63.97  136.73   48.57   0.0020000
  117.22  161.32  159.24   0.0020000
  108.50   18.52  157.00   0.0020000
 -157.75  143.37  -38.28   0.0020000
  -55.24   93.71  178.14   0.0020000
  -56.35   93.66  -59.42   0.0020000
   16.12   32.57  -76.01   0.0020000
  103.71  156.95   96.23   0.0020000
  120.17   92.31  116.21   0.0020000
   67.32  172.45  105.60   0.0020000
  122.95   90.67  -61.45   0.0020000
 -120.47   89.19  -82.36   0.0020000
  115.87   49.92  134.84   0.0020000
  -55.77   78.37   68.91   0.0020000
  112.87  154.26 -154.27   0.0020000
 -168.59  159.70 -109.21   0.0020000
  119.93   58.93  -49.32   0.0020000
   17.85   26.08  103.92   0.0020000
   -2.96   57.18  -25.38   0.0020000
  -14.93   11.92  -12.95   0.0020000
  146.07   18.28  119.76   0.0020000
  123.31   91.63    6.65   0.0020000
  130.87   17.41    7.24   0.0020000
  -44.44   51.87 -130.74   0.0020000
  124.09   90.47  -54.43   0.0020000
  120.57  116.27 -129.52   0.0020000
  132.64  141.18  174.83   0.0020000
  167.58   51.82  163.32   0.0020000
 -120.88   74.17   70.82   0.0020000
  124.17   97.31   54.24   0.0020000
   51.11  170.17  -55.30   0.0020000
  -57.27   81.63 -111.71   0.0020000
  -56.16   86.34 -112.07   0.0020000
   47.32  169.24 -126.35   0.0020000
  -58.63   68.30 -108.71   0.0020000
  -61.60  105.82   45.90   0.0020000
  -57.79   83.15 -168.59   0.0020000
  115.83   44.31 -105.81   0.0020000
  -40.47  177.11 -117.67   0.0020000
    1.87  157.07  124.52   0.0020000
  112.03  106.11 -175.19   0.0020000
  -58.97  117.36  169.40   0.0020000
   87.97  160.18 -158.75   0.0020000
  -57.15   77.02   70.25   0.0020000
 -116.55   97.85  154.71   0.0020000
  115.19  131.42  -23.75   0.0020000
  122.74  109.26  -70.72   0.0020000
 -166.32  169.83   89.49   0.0020000
  -57.51   70.87   11.49   0.0020000
  121.65  109.09   48.87   0.0020000
    5.40   60.68 -145.53   0.0020000
  100.69  158.99  155.95   0.0020000
 -169.00   18.40  -12.42   0.0020000
  122.48  104.25  -12.38   0.0020000
  -39.55    4.88 -122.09   0.0020000
  -23.66   34.94 -177.10   0.0020000
  118.68   27.87   19.46   0.0020000
 -151.84   32.17 -146.61   0.0020000
  124.46   81.54    6.65   0.0020000
   67.55  100.06   93.39   0.0020000
  -52.98  105.71  -34.92   0.0020000
  -57.10   85.78   60.45   0.0020000
  -56.88  103.67  110.62   0.0020000
  -23.51  174.29 -163.56   0.0020000
 -164.37  161.84   74.81   0.0020000
  123.56   10.15 -164.64   0.0020000
   64.38   92.56  -79.83   0.0020000
  -63.12  100.82  166.77   0.0020000
   87.20   19.42   98.38   0.0020000
  115.35    8.24  -37.12   0.0020000
   63.04   97.45   34.26   0.0020000
   76.83   14.92   38.95   0.0020000
  121.94   97.24  177.83   0.0020000
  113.28   13.71  -94.52   0.0020000
  121.13  106.14 -132.11   0.0020000
 -165.25   36.89  -16.83   0.0020000
 -177.40   53.33  153.81   0.0020000
  123.53   84.33   64.56   0.0020000
  -61.66   70.14 -166.00   0.0020000
  -55.40   92.04  120.89   0.0020000
  124.04   82.55   64.84   0.0020000
  -56.31   99.41   -8.05   0.0020000
  -68.56  146.55  -18.89   0.0020000
  -45.68   30.78  131.97   0.0020000
  -58.80  108.21   54.08   0.0020000
  139.34    6.36 -120.33   0.0020000
  -57.18   85.53  126.11   0.0020000
  -59.80   62.51   12.04   0.0020000
  -62.27  157.67  159.83   0.0020000
  161.81  158.18  -67.74   0.0020000
   99.11    7.14   98.46   0.0020000
  -57.87  105.41 -130.64   0.0020000
  -55.21  112.35 -139.60   0.0020000
  123.77  112.40  -68.85   0.0020000
  -63.47  170.10   97.79   0.0020000
 -162.65  159.26  -44.69   0.0020000
  -64.68   67.10   16.23   0.0020000
  160.66  164.84  -55.27   0.0020000
  111.80   28.55  -51.35   0.0020000
  -58.47   69.45  133.74   0.0020000
  -55.54   85.06    2.18   0.0020000
  123.93   97.75 -125.19   0.0020000
  -61.42   26.00   20.22   0.0020000
   70.90    6.22 -112.23   0.0020000
  116.53   90.62 -174.34   0.0020000
 -174.27   19.98  172.02   0.0020000
 -120.72   74.77 -174.50   0.0020000
  106.23  128.55  154.91   0.0020000
   88.79  172.71 -109.52   0.0020000
  127.88  110.46    9.83   0.0020000
  122.10   71.71  101.02   0.0020000
  -59.68   46.71  129.77   0.0020000
   83.47  174.29  -54.27   0.0020000
  124.05   86.91  -54.42   0.0020000
  -59.81  109.90  -12.29   0.0020000
  111.74   65.15  -40.54   0.0020000
  -56.64  109.87   50.66   0.0020000
  -57.62  108.75   49.22   0.0020000
 -127.88   90.18  -79.68   0.0020000
