TEXTURE AT STRAIN =    1.0000
   1.178   2.966   0.283  <-- length of average ellipsoid axes for phase
 -154.30   90.21   90.00  <-- Euler angles of average ellipsoid axes for phase
B       500
  115.74  122.02   41.92   0.0010000
  144.10   25.77   64.46   0.0010000
  117.80   32.87   66.56   0.0010000
  127.70   89.19   55.67   0.0010000
  128.06   82.70    3.89   0.0010000
  -23.76    4.62  -98.72   0.0010000
  -52.13   80.78  -51.34   0.0010000
  149.87  165.23   -6.27   0.0010000
  -52.73   75.27  129.69   0.0010000
  -74.66  147.48 -148.34   0.0010000
  -66.29  160.00  -69.30   0.0010000
   10.02  175.32   71.44   0.0010000
  -51.66   70.26   51.86   0.0010000
  -52.16  111.68  171.11   0.0010000
   10.86  132.89  -42.45   0.0010000
  -78.45   67.32  161.77   0.0010000
   81.88    8.05 -139.18   0.0010000
   88.70   41.86  -17.37   0.0010000
   77.55   61.30 -171.73   0.0010000
 -130.99   18.73 -160.38   0.0010000
  128.01  121.82  -48.94   0.0010000
  -50.06  150.09 -128.71   0.0010000
 -115.78    8.35   58.86   0.0010000
  120.21   31.36 -147.21   0.0010000
  128.11   88.66   60.10   0.0010000
  121.50   99.48  -69.06   0.0010000
  -53.09   90.44  -63.89   0.0010000
  -53.30   70.11 -170.58   0.0010000
  -73.10  104.48 -100.69   0.0010000
  -53.47  109.06  -67.80   0.0010000
  127.99   85.61   62.66   0.0010000
  -57.45   50.07  -43.51   0.0010000
  126.62  111.72  109.18   0.0010000
  -72.55   69.57  -97.89   0.0010000
  -53.93  119.23 -129.70   0.0010000
  -52.72   64.77 -112.86   0.0010000
  -55.64  143.28 -134.47   0.0010000
 -141.18   39.35 -152.69   0.0010000
 -113.70  100.92  104.42   0.0010000
  -52.20   74.40   70.33   0.0010000
 -154.98  149.71   18.61   0.0010000
  124.68   78.32  121.69   0.0010000
  127.91   78.73 -173.92   0.0010000
  -54.92   60.58  131.21   0.0010000
  127.31   71.56 -109.98   0.0010000
  128.24   95.38 -127.01   0.0010000
 -116.69   30.55    6.90   0.0010000
  128.09   84.21  123.30   0.0010000
  -53.90   64.94 -169.01   0.0010000
  -58.25   48.30 -167.61   0.0010000
  -98.70   15.63  -72.36   0.0010000
  -52.45   95.24  173.24   0.0010000
  -52.04  114.58 -129.16   0.0010000
  119.54  160.43  -31.60   0.0010000
   48.97   40.89 -103.23   0.0010000
  -88.16  134.29   19.63   0.0010000
   71.95   99.84  -77.67   0.0010000
  -58.33   54.01   57.10   0.0010000
 -102.75    3.29  -17.40   0.0010000
  -50.06   97.20  113.79   0.0010000
  116.99    7.86   -0.16   0.0010000
  -52.38  104.68  168.26   0.0010000
 -110.45   75.90 -116.58   0.0010000
  122.64  170.42  -73.16   0.0010000
  -52.11   85.33 -116.98   0.0010000
  127.19   74.84 -114.74   0.0010000
  -59.00  146.67 -143.14   0.0010000
  -53.12  122.48 -148.80   0.0010000
  162.71   23.22  111.60   0.0010000
  138.36   53.95 -134.70   0.0010000
  -52.00   79.22   12.33   0.0010000
  -52.01   99.88  175.05   0.0010000
   72.36   11.10  173.19   0.0010000
 -110.16   90.77  -52.07   0.0010000
  -12.78  168.03   69.84   0.0010000
  -94.56  172.77   22.74   0.0010000
  -58.71  135.38  170.25   0.0010000
  125.23   56.16   68.93   0.0010000
  127.68   76.58   67.60   0.0010000
  -59.68  142.78   33.57   0.0010000
  127.28   73.27 -174.17   0.0010000
   19.20   10.88 -138.00   0.0010000
  -68.86  155.35   98.60   0.0010000
  -52.11   98.96  175.28   0.0010000
   -3.84    2.41   62.82   0.0010000
  127.91   79.09 -174.35   0.0010000
  128.07   84.63  124.87   0.0010000
   68.31   87.97  107.34   0.0010000
  -52.38  111.14   53.23   0.0010000
  -52.10   79.10  -55.38   0.0010000
  118.86   34.88   11.64   0.0010000
   75.31   15.86   52.75   0.0010000
  108.74   64.15  148.21   0.0010000
  -50.99  138.70 -127.03   0.0010000
  -51.92   94.47   -2.33   0.0010000
  123.15  150.51 -137.69   0.0010000
  111.33  143.22  156.49   0.0010000
   71.49   83.63  -50.82   0.0010000
  108.64  125.10  -24.37   0.0010000
  128.08   83.69   62.72   0.0010000
   73.42   81.40  -38.70   0.0010000
  128.00   81.52   67.06   0.0010000
  127.23   72.09    9.54   0.0010000
  124.40  123.35  109.59   0.0010000
  -52.18   96.04   80.04   0.0010000
  128.06   89.43  -59.71   0.0010000
   -1.30   14.22   55.14   0.0010000
  -53.44   68.81  131.27   0.0010000
  -52.57  110.71 -128.42   0.0010000
  -51.92   87.30 -117.80   0.0010000
  -61.11   39.86  -82.35   0.0010000
   39.63  138.21   35.57   0.0010000
  -70.13  128.09  157.48   0.0010000
  128.00   63.16 -128.00   0.0010000
  124.99  103.67 -128.12   0.0010000
  126.05  112.97  -11.82   0.0010000
   73.04   64.16   39.11   0.0010000
  -60.14   45.17  -45.72   0.0010000
  126.90  110.49    0.49   0.0010000
  -38.07  151.14    0.20   0.0010000
  -26.19   11.83  -48.12   0.0010000
  -52.50   98.45   97.15   0.0010000
   28.16   34.05 -141.82   0.0010000
 -116.83   47.90  179.32   0.0010000
  126.64  155.00   41.72   0.0010000
   33.34  152.70  -35.20   0.0010000
  107.60   80.31  -88.31   0.0010000
  123.76  126.88  -70.60   0.0010000
  126.74   63.81 -115.41   0.0010000
  -64.86  158.93 -125.06   0.0010000
  -52.13   81.48    3.95   0.0010000
 -115.63  103.54  115.73   0.0010000
  -51.54   92.92 -107.93   0.0010000
  -82.52   33.48  -84.14   0.0010000
  125.20  120.96  175.92   0.0010000
  -81.28  125.27  -33.18   0.0010000
  -78.45   50.71   90.54   0.0010000
  127.55   82.71  132.20   0.0010000
  -60.86   84.47   10.67   0.0010000
  -53.72  121.20  154.57   0.0010000
  -65.55  149.76  101.34   0.0010000
  121.19  131.82  106.83   0.0010000
  126.03   71.98  117.37   0.0010000
   21.51   15.58  102.80   0.0010000
  126.64  103.69   64.38   0.0010000
  127.79   99.56   53.03   0.0010000
  127.47   73.60  128.45   0.0010000
  103.83   73.56  112.40   0.0010000
  -52.58   92.83  -98.36   0.0010000
  101.27   62.51  134.65   0.0010000
  126.02  120.77   50.89   0.0010000
  -52.28  100.14  -65.18   0.0010000
   70.21   77.51   20.60   0.0010000
 -113.79   76.13   77.93   0.0010000
 -106.85   90.46 -112.14   0.0010000
  115.77  145.28  163.59   0.0010000
 -156.93  152.02 -104.10   0.0010000
  -43.97  157.95   -6.80   0.0010000
  127.76   91.44   61.82   0.0010000
  127.31   90.25 -130.41   0.0010000
  -53.00  116.76   58.45   0.0010000
  126.19   63.29 -169.87   0.0010000
 -108.98  100.12   34.14   0.0010000
  129.53  134.15 -166.53   0.0010000
   72.72   80.30   71.53   0.0010000
  -47.71  124.54   15.42   0.0010000
  -63.62   35.50  134.67   0.0010000
   59.84    7.24 -177.55   0.0010000
  114.47   87.47 -179.58   0.0010000
  126.15   68.39  131.07   0.0010000
  -51.93   96.39 -122.94   0.0010000
  -69.07  160.15  -17.93   0.0010000
  122.70   22.83 -156.73   0.0010000
 -106.03   90.61  -29.10   0.0010000
 -134.34  147.53  -22.97   0.0010000
  127.35   92.88  -57.24   0.0010000
  127.53   99.77  115.18   0.0010000
  126.37  115.48  175.10   0.0010000
 -111.79  101.84  -74.93   0.0010000
  124.71   68.31 -107.95   0.0010000
  -55.58   62.66  127.84   0.0010000
  126.27   87.53 -177.90   0.0010000
  129.63  126.24   98.46   0.0010000
 -115.89   62.16 -113.28   0.0010000
  127.24  103.62  110.44   0.0010000
  126.28   63.56   10.11   0.0010000
  127.19   71.80 -166.98   0.0010000
  -51.76  101.30   64.06   0.0010000
  127.69  101.59 -134.68   0.0010000
  128.13   86.74  -59.17   0.0010000
  127.37   65.51  -60.53   0.0010000
  127.11   69.68  -50.19   0.0010000
  -56.86  128.40  -11.24   0.0010000
  -63.00   96.91   72.00   0.0010000
  -52.79   86.59  131.77   0.0010000
   70.64   98.52  -14.72   0.0010000
  111.51  160.86  170.21   0.0010000
  -24.52  171.63   45.79   0.0010000
   11.57  159.36 -170.14   0.0010000
 -136.83   39.13   24.02   0.0010000
   60.40  161.41  170.77   0.0010000
  -55.13  121.01   44.19   0.0010000
  -51.81  102.96 -123.91   0.0010000
  113.36   78.85 -103.53   0.0010000
  -51.93   96.88   -3.61   0.0010000
  -50.49   82.89  -63.92   0.0010000
  119.43  137.43  -13.24   0.0010000
 -108.45  101.87  -14.30   0.0010000
   25.64   14.20   99.06   0.0010000
  -67.07  138.22  -20.71   0.0010000
 -101.19   37.31  -68.74   0.0010000
  132.52   28.07    6.85   0.0010000
  -65.73  152.08 -137.81   0.0010000
  -51.71   89.38  178.76   0.0010000
  -42.57  174.36  144.01   0.0010000
  112.97   92.81  -63.16   0.0010000
  -52.04  106.86 -127.46   0.0010000
  -55.58   22.50 -159.27   0.0010000
  -52.24   76.41 -172.16   0.0010000
  127.39   73.76 -179.73   0.0010000
   36.02  161.23  -90.79   0.0010000
  128.14   82.16    6.27   0.0010000
  127.10   77.19 -122.35   0.0010000
  -54.10  120.30  -69.56   0.0010000
  -51.92   88.01 -178.38   0.0010000
  127.80   80.15 -171.20   0.0010000
  -52.24  102.81  173.31   0.0010000
  -52.14   81.14    6.55   0.0010000
 -179.11   21.91 -125.88   0.0010000
  127.79   87.35  -96.45   0.0010000
  -55.48   79.03 -109.10   0.0010000
  -52.04   82.97    5.60   0.0010000
  114.80  170.39   59.44   0.0010000
  127.49   74.53   68.36   0.0010000
  118.40  144.19  143.78   0.0010000
  128.17   97.92  114.04   0.0010000
  127.87   94.23 -121.26   0.0010000
 -107.64   92.53  158.51   0.0010000
   70.07   83.69 -103.26   0.0010000
  129.85   81.54 -175.26   0.0010000
  -51.98   84.25    0.14   0.0010000
  -22.16   30.67  -67.75   0.0010000
  -59.36  137.17   22.60   0.0010000
  -85.87  165.74  -94.52   0.0010000
  -52.32   81.62 -109.90   0.0010000
  -54.24  105.59   50.21   0.0010000
 -110.49  100.63 -150.24   0.0010000
   93.29  151.05 -159.60   0.0010000
 -110.35  105.64   41.27   0.0010000
  -66.35  113.00  162.94   0.0010000
  -81.87  104.27   91.94   0.0010000
  127.35   75.64 -110.89   0.0010000
  -88.85   54.32  161.98   0.0010000
  -52.58   76.47 -171.28   0.0010000
  -56.08   57.64  133.03   0.0010000
  123.37   48.66   69.73   0.0010000
 -126.88  152.04  163.13   0.0010000
  -52.14  106.68   46.85   0.0010000
  -55.68  130.56  -71.07   0.0010000
  127.66   99.19 -127.47   0.0010000
 -144.92   48.31 -152.78   0.0010000
  -75.16   72.19  -80.92   0.0010000
  -56.35  130.13   49.97   0.0010000
  125.61   57.25  129.24   0.0010000
 -159.97  159.91  134.38   0.0010000
  -55.00   60.61  -48.76   0.0010000
  -62.27  145.41  -12.33   0.0010000
 -140.48  167.09  -26.40   0.0010000
  128.45   87.55  -58.95   0.0010000
  -52.05   97.81 -124.34   0.0010000
  -52.02   98.11  115.85   0.0010000
  127.07  146.06 -130.91   0.0010000
 -133.14  132.90  -77.95   0.0010000
  -73.10  116.72  148.18   0.0010000
 -101.21  127.81  127.39   0.0010000
  -55.76  119.10  -74.37   0.0010000
 -148.59  144.72  -35.55   0.0010000
  126.56  106.07   -2.11   0.0010000
  115.71  145.56  163.81   0.0010000
  -44.08  131.57   14.61   0.0010000
 -148.53  145.12  -94.91   0.0010000
  127.86   78.33  -53.52   0.0010000
 -145.65  150.16 -154.78   0.0010000
   73.41   68.72   96.47   0.0010000
  177.78  168.17 -177.83   0.0010000
 -110.63  109.89  -63.39   0.0010000
   -2.51  142.84   69.63   0.0010000
  128.11   85.80   61.62   0.0010000
  -53.22  105.30 -141.25   0.0010000
  -63.62   16.55 -135.29   0.0010000
  -65.78  139.49  100.38   0.0010000
  -58.58   49.23  139.76   0.0010000
   72.17   80.15 -155.85   0.0010000
  -58.71   58.79   14.38   0.0010000
  115.86  166.09  -84.63   0.0010000
  -53.69   73.71 -173.47   0.0010000
  127.54  101.62 -131.39   0.0010000
 -108.59   62.66  166.86   0.0010000
  143.89  160.55  116.32   0.0010000
  134.09  141.30  174.16   0.0010000
  -52.99   71.40    1.62   0.0010000
  -38.91   28.26  120.98   0.0010000
  -64.77   28.65   70.10   0.0010000
  127.27  105.91   -2.26   0.0010000
  -81.85  175.77   38.03   0.0010000
  -51.87   90.60 -119.48   0.0010000
  -51.95   87.44 -177.67   0.0010000
 -116.43   66.64 -177.94   0.0010000
  127.31   97.25  179.32   0.0010000
 -104.81   94.61   87.57   0.0010000
  -52.39  121.72  113.23   0.0010000
  -52.15   98.59  115.56   0.0010000
  125.84   56.95  128.44   0.0010000
  124.48  130.01  167.31   0.0010000
 -163.85   25.71 -131.81   0.0010000
   66.83  107.96 -177.63   0.0010000
  -51.95   86.65   62.95   0.0010000
 -110.69   76.14   80.48   0.0010000
  -52.41   84.22 -170.24   0.0010000
  127.76   87.57    7.85   0.0010000
  -56.71  151.04   38.75   0.0010000
  123.29   88.11 -114.92   0.0010000
  -52.49   87.66  177.85   0.0010000
  109.33  138.34 -144.21   0.0010000
  -63.87   19.92  177.78   0.0010000
  -52.11   87.49 -114.60   0.0010000
  -54.58  120.62  109.80   0.0010000
  -53.71  105.55    7.52   0.0010000
  120.35   81.63    6.53   0.0010000
  127.63   81.35   13.57   0.0010000
  -51.93   94.21   57.98   0.0010000
  -51.11   98.94  -79.13   0.0010000
   78.76  168.86   72.16   0.0010000
 -156.68   25.77   43.19   0.0010000
  -53.38  111.09   62.34   0.0010000
 -107.13   75.50   93.34   0.0010000
  -61.01  142.29   96.61   0.0010000
   71.12  103.57 -174.18   0.0010000
  -51.91   95.58 -122.24   0.0010000
  126.66  102.20  -61.02   0.0010000
  113.57   28.25   19.22   0.0010000
   73.37  103.67 -146.15   0.0010000
   61.29   33.87   68.37   0.0010000
  -58.82  154.43  -23.14   0.0010000
  119.55   99.97   42.95   0.0010000
  123.69  121.56  173.01   0.0010000
   71.62   84.58   12.21   0.0010000
  125.40  155.17  -15.70   0.0010000
    2.68   38.21 -127.88   0.0010000
  126.51  117.08   45.86   0.0010000
  125.75  117.29 -130.78   0.0010000
 -108.32   89.64   49.63   0.0010000
  -52.69  108.35  110.88   0.0010000
  107.51  109.35  -87.82   0.0010000
  107.23   17.70 -157.89   0.0010000
 -108.18   90.41  177.07   0.0010000
  -52.01  101.12   -6.08   0.0010000
 -122.42   49.54   68.50   0.0010000
  128.35  101.27   49.39   0.0010000
 -154.11   18.29  -80.77   0.0010000
  127.66   89.95  114.60   0.0010000
  -52.16   94.50   59.33   0.0010000
  127.45  104.07  171.60   0.0010000
  127.37  106.67  -64.98   0.0010000
  127.56   75.29 -171.77   0.0010000
  117.71  146.35   -9.39   0.0010000
  -51.78   90.10 -119.14   0.0010000
  127.66   84.98  123.88   0.0010000
  -69.76  167.23  -10.69   0.0010000
  -51.91   94.42  178.33   0.0010000
  118.30  139.81  -14.14   0.0010000
  124.32   56.44  130.77   0.0010000
 -156.90   37.98  -19.88   0.0010000
 -106.07   13.89  -66.74   0.0010000
  -55.76  118.36 -116.38   0.0010000
   72.49   77.50  -86.13   0.0010000
 -145.69  165.56 -151.90   0.0010000
  -53.34   71.99  -52.77   0.0010000
   28.51   20.21  -21.14   0.0010000
  -52.63   76.08   69.21   0.0010000
 -123.30   43.87  -50.86   0.0010000
  -55.59  126.04  108.30   0.0010000
  127.29  149.78  166.01   0.0010000
  120.15   39.65  139.22   0.0010000
 -112.58  139.09  -55.27   0.0010000
  -51.28   94.09  179.14   0.0010000
  -52.22   94.04  -56.25   0.0010000
   66.09   38.20 -116.78   0.0010000
  122.73  127.75  110.14   0.0010000
  127.52   93.00  116.83   0.0010000
  111.48  161.02  111.32   0.0010000
  128.09   90.84  -61.43   0.0010000
 -110.32   93.18  -74.97   0.0010000
  126.21   63.85  130.36   0.0010000
  -51.47   77.23   66.96   0.0010000
  124.72  140.34 -132.44   0.0010000
 -128.60  152.18  -78.73   0.0010000
  125.84   62.92 -109.00   0.0010000
   55.02   32.86   73.55   0.0010000
   68.49   72.04  -46.07   0.0010000
   29.95   15.33  -25.31   0.0010000
 -174.61   23.36  113.23   0.0010000
  127.34   91.38    9.78   0.0010000
  156.34   21.28   -6.32   0.0010000
   35.39   43.87 -150.95   0.0010000
  128.31   90.05  -53.94   0.0010000
  124.03  115.81  -84.64   0.0010000
 -166.83  139.73 -168.98   0.0010000
 -112.36   66.96  142.07   0.0010000
  -79.28   69.39   41.63   0.0010000
  128.06   98.28   56.65   0.0010000
  111.71  153.12  -20.53   0.0010000
  -52.15   82.02 -114.10   0.0010000
  -52.07   85.66 -112.39   0.0010000
  114.04  148.44  -78.26   0.0010000
  -54.66   69.21 -116.28   0.0010000
  -55.73  105.39   47.12   0.0010000
  -52.57   83.43 -167.77   0.0010000
  124.92   57.45 -112.89   0.0010000
  -26.81  176.30 -144.34   0.0010000
   44.51  144.98  155.20   0.0010000
  122.91   91.30  179.30   0.0010000
  -54.63  115.08  178.03   0.0010000
  124.22  124.53 -130.69   0.0010000
  -52.49   76.79   67.32   0.0010000
 -107.15   98.60  161.56   0.0010000
  126.75  128.33   -7.22   0.0010000
  127.49  107.83  -67.78   0.0010000
 -109.09  165.29  122.94   0.0010000
  -52.67   72.11   10.33   0.0010000
  125.67  109.26   56.07   0.0010000
   71.55   74.63 -157.00   0.0010000
  122.48  128.58  170.02   0.0010000
 -129.72   26.64  -41.04   0.0010000
  127.47  102.89  -12.81   0.0010000
  -20.77    6.58 -103.93   0.0010000
   32.63   39.39  152.75   0.0010000
  132.27   36.22    3.71   0.0010000
  -80.38   42.36  153.11   0.0010000
  128.49   80.92    5.57   0.0010000
  108.32  112.56   96.48   0.0010000
   68.18   99.85  -26.38   0.0010000
  -52.93   84.24   55.64   0.0010000
  -52.18  103.68  113.95   0.0010000
    1.65  173.99 -175.55   0.0010000
 -119.02  156.27  110.51   0.0010000
  128.66   17.69 -160.93   0.0010000
   78.06   93.71  -73.71   0.0010000
  -55.82  100.68  171.21   0.0010000
  124.72   56.55   70.64   0.0010000
  122.53   16.94  -29.99   0.0010000
   72.17   98.10   40.57   0.0010000
  123.34   49.23   10.47   0.0010000
  126.30   99.54 -175.46   0.0010000
  120.88   28.93  -96.83   0.0010000
  127.26  104.52 -129.61   0.0010000
 -113.68   43.29  -57.55   0.0010000
 -111.80   71.93  129.33   0.0010000
  128.13   84.31   63.37   0.0010000
  -54.71   71.73 -167.33   0.0010000
  -51.46   92.48  121.51   0.0010000
  128.06   81.67   62.23   0.0010000
  -52.02   99.68   -7.18   0.0010000
  -55.45  124.60   -7.67   0.0010000
   -2.56   33.54  118.61   0.0010000
  -54.47  110.11   68.28   0.0010000
  149.58    8.45 -100.87   0.0010000
  -52.08   84.94  126.09   0.0010000
  -53.52   67.31   10.82   0.0010000
  -50.38  147.23  169.33   0.0010000
 -155.97  149.23  -43.27   0.0010000
  117.00   17.13  114.66   0.0010000
  -52.43  104.11 -127.34   0.0010000
   63.96  106.25 -140.89   0.0010000
  130.63  117.80  -66.76   0.0010000
  -58.04  159.42   92.93   0.0010000
 -118.15  153.88   -8.45   0.0010000
  -57.17   70.98   14.01   0.0010000
 -156.44  159.04  -43.60   0.0010000
  123.35   45.46 -107.32   0.0010000
  -53.02   71.62  132.49   0.0010000
  -51.35   84.56    0.45   0.0010000
  127.88   99.05 -121.57   0.0010000
  -48.43   35.08    5.44   0.0010000
  111.91   15.46 -111.90   0.0010000
  124.96   86.44 -177.01   0.0010000
 -133.85   30.60  143.16   0.0010000
 -107.39   83.47  177.83   0.0010000
  122.51  101.69  109.23   0.0010000
  114.96  162.57 -113.68   0.0010000
 -147.85  131.64  -17.52   0.0010000
  128.01   69.95   94.75   0.0010000
  -39.86   41.43  111.80   0.0010000
  115.23  167.43  -55.62   0.0010000
  128.04   86.64  -54.47   0.0010000
  -52.80  107.01   -9.48   0.0010000
  118.13   74.88    9.29   0.0010000
  -51.86  109.59   54.91   0.0010000
  -52.48  107.64   50.88   0.0010000
 -111.18   92.60  -70.30   0.0010000
