TEXTURE AT STRAIN =    1.0000
   1.071   2.295   0.407  <-- length of average ellipsoid axes for phase
 -154.20   90.08   90.01  <-- Euler angles of average ellipsoid axes for phase
B       500
   71.09  130.25    7.26   0.0020000
  165.59   25.50   79.89   0.0020000
  120.59   22.84   66.15   0.0020000
  124.51   87.60   53.73   0.0020000
  124.97   81.03    5.84   0.0020000
  -13.34    4.75  -96.99   0.0020000
  -53.19   80.77  -46.01   0.0020000
  165.25  164.87  -22.99   0.0020000
  -56.34   70.60  129.62   0.0020000
 -116.28  151.67  176.16   0.0020000
  -66.71  165.48  -75.94   0.0020000
   17.05  174.72   67.41   0.0020000
  -38.36   68.15   39.73   0.0020000
  -48.93  118.35  170.75   0.0020000
   -0.44  121.15  -29.47   0.0020000
 -113.94   79.77  179.62   0.0020000
   78.56    8.29 -129.10   0.0020000
   55.76   53.10    9.93   0.0020000
   61.41   65.25 -164.63   0.0020000
 -132.87   20.18 -158.45   0.0020000
  147.28  126.82  -35.33   0.0020000
  -35.17  154.51 -152.74   0.0020000
 -117.12    8.92   66.81   0.0020000
  127.49   23.97 -123.22   0.0020000
  124.91   88.28   61.08   0.0020000
   95.67  114.88  -54.82   0.0020000
  -59.89   87.17  -71.66   0.0020000
  -55.95   63.64 -173.72   0.0020000
 -110.44   95.24 -100.97   0.0020000
  -58.01  118.00  -65.71   0.0020000
  122.35   85.45   64.57   0.0020000
  -52.57   42.22  -16.74   0.0020000
  124.15  118.39  111.53   0.0020000
 -110.37   83.20 -103.29   0.0020000
  -59.27  131.53 -130.09   0.0020000
  -47.49   55.87 -117.22   0.0020000
  -45.35  149.64 -160.64   0.0020000
 -158.57   44.04 -142.37   0.0020000
 -174.43  110.28  104.06   0.0020000
  -50.57   70.79   73.96   0.0020000
 -160.98  144.55   17.38   0.0020000
  117.23   69.86   91.32   0.0020000
  125.14   76.80 -173.00   0.0020000
  -64.27   48.00  135.15   0.0020000
  123.98   66.31 -110.68   0.0020000
  129.42   94.20 -132.96   0.0020000
 -131.18   35.06   17.75   0.0020000
  124.93   82.99  125.28   0.0020000
  -57.98   54.29 -170.78   0.0020000
  -77.68   31.56 -152.76   0.0020000
 -109.42   16.47  -61.42   0.0020000
  -57.90   94.59  166.88   0.0020000
  -43.59  121.73 -135.82   0.0020000
  131.67  163.82  -56.22   0.0020000
   40.39   44.74  -99.90   0.0020000
 -116.20  110.39  -13.60   0.0020000
   63.76  102.01  -78.44   0.0020000
  -57.85   43.22   59.45   0.0020000
 -104.25    3.45   -5.87   0.0020000
  -34.76   97.89  104.21   0.0020000
  122.17    7.17    7.52   0.0020000
  -55.30  106.62  165.07   0.0020000
 -122.19   64.09 -116.40   0.0020000
  131.89  171.34  -61.97   0.0020000
  -56.90   82.98 -117.18   0.0020000
  124.10   71.11 -116.46   0.0020000
  -51.03  153.78 -172.26   0.0020000
  -38.48  131.59 -155.33   0.0020000
  176.46   26.41  127.59   0.0020000
  162.37   61.06 -149.92   0.0020000
  -51.01   78.44   20.93   0.0020000
  -54.31  101.15  174.43   0.0020000
   67.50   11.66 -178.10   0.0020000
 -118.67   92.91  -50.09   0.0020000
    0.55  166.84   52.90   0.0020000
  -96.90  172.57   13.25   0.0020000
  -61.25  148.44  171.28   0.0020000
  121.23   44.27   67.53   0.0020000
  124.05   72.34   69.52   0.0020000
  -53.79  151.24    5.75   0.0020000
  124.51   68.81 -176.70   0.0020000
   24.24   12.35 -134.99   0.0020000
  -94.23  162.22   76.81   0.0020000
  -57.03  102.18  173.41   0.0020000
    2.03    2.59   67.85   0.0020000
  124.87   76.58 -172.97   0.0020000
  125.85   85.01  127.75   0.0020000
   54.27   85.66  101.94   0.0020000
  -51.96  119.14   56.75   0.0020000
  -51.96   76.05  -58.11   0.0020000
  121.17   25.17    7.78   0.0020000
   64.56   16.74   64.24   0.0020000
   67.54   75.77  173.29   0.0020000
  -29.48  145.07 -143.26   0.0020000
  -55.56   95.42   -4.24   0.0020000
  133.66  155.24 -168.11   0.0020000
   75.87  150.86  126.58   0.0020000
   63.88   82.58  -51.91   0.0020000
   65.40  111.45  -63.26   0.0020000
  126.71   83.39   63.26   0.0020000
   66.65   81.10  -37.92   0.0020000
  126.05   81.73   71.03   0.0020000
  123.06   64.51    9.70   0.0020000
  120.90  136.06  111.19   0.0020000
  -46.97   95.95   87.90   0.0020000
  122.97   90.59  -58.62   0.0020000
    8.06   15.97   60.33   0.0020000
  -57.44   59.40  129.38   0.0020000
  -54.33  117.71 -126.65   0.0020000
  -54.57   86.89 -118.15   0.0020000
  -57.34   30.06  -59.96   0.0020000
   29.24  132.11   34.35   0.0020000
 -116.39  126.69  118.93   0.0020000
  142.27   58.88 -142.52   0.0020000
  113.29  118.61  -94.61   0.0020000
  120.30  124.99  -11.66   0.0020000
   67.38   72.22   23.53   0.0020000
  -91.10   29.04  -20.75   0.0020000
  133.33  117.10    9.24   0.0020000
  -15.64  151.83  -17.52   0.0020000
  -10.62   12.34  -40.12   0.0020000
  -53.26   98.54   93.14   0.0020000
   15.13   40.12 -134.95   0.0020000
 -118.63   56.39  140.51   0.0020000
  140.72  158.39   15.42   0.0020000
   26.17  149.95  -40.13   0.0020000
   69.66   86.16  -85.60   0.0020000
  124.70  135.02  -71.71   0.0020000
  128.69   54.11 -118.64   0.0020000
  -62.57  164.78 -131.29   0.0020000
  -53.32   79.81    2.63   0.0020000
 -175.05  102.01  134.71   0.0020000
  -44.25   95.21 -101.00   0.0020000
 -121.35   34.36  -52.17   0.0020000
  129.81  131.18  179.19   0.0020000
 -116.99  122.94  -53.62   0.0020000
 -119.30   50.61  120.19   0.0020000
  125.05   82.51  136.32   0.0020000
 -100.45   84.96   18.85   0.0020000
  -41.43  130.75  143.67   0.0020000
  -94.98  160.01   76.41   0.0020000
   95.85  147.74   86.99   0.0020000
  124.20   68.14  109.06   0.0020000
   24.88   17.50  104.13   0.0020000
  127.87  107.44   71.99   0.0020000
  124.81  101.72   51.99   0.0020000
  123.83   67.90  128.67   0.0020000
   68.45   85.65  110.40   0.0020000
  -50.67   92.16  -90.37   0.0020000
   68.24   83.54  134.08   0.0020000
  128.74  129.55   47.26   0.0020000
  -57.61  104.45  -66.49   0.0020000
   58.92   73.94   23.32   0.0020000
 -171.35   64.53   80.84   0.0020000
 -113.63   91.72 -111.65   0.0020000
   98.07  157.67  149.06   0.0020000
 -164.63  147.40 -109.36   0.0020000
  -29.33  159.81  -32.65   0.0020000
  124.90   92.36   63.54   0.0020000
  124.87   88.74 -135.04   0.0020000
  -46.61  126.05   65.38   0.0020000
  117.99   51.04 -166.92   0.0020000
 -117.28  100.64   32.80   0.0020000
  156.04  139.78 -155.44   0.0020000
   63.87   78.86   72.42   0.0020000
  -25.07  124.91   33.04   0.0020000
  -67.46   23.15  136.79   0.0020000
   58.41    7.72 -168.90   0.0020000
   74.03   87.80  174.45   0.0020000
  118.70   62.35  133.23   0.0020000
  -55.01   98.05 -124.74   0.0020000
  -79.67  165.23  -29.13   0.0020000
  134.04   18.76 -128.88   0.0020000
 -111.25   90.74  -29.44   0.0020000
 -145.79  146.00  -31.64   0.0020000
  124.12   94.01  -54.63   0.0020000
  124.76  101.95  116.21   0.0020000
  129.36  125.09  178.13   0.0020000
 -137.02  115.59  -80.68   0.0020000
  114.71   62.75 -103.89   0.0020000
  -59.44   49.81  124.79   0.0020000
  116.78   89.97 -174.98   0.0020000
  153.82  131.29   95.96   0.0020000
 -139.94   51.45  -98.08   0.0020000
  121.30  108.09  108.84   0.0020000
  120.48   52.68   10.89   0.0020000
  124.08   68.90 -164.08   0.0020000
  -45.53  105.39   71.13   0.0020000
  127.27  102.37 -144.55   0.0020000
  125.09   85.68  -57.81   0.0020000
  136.01   58.27  -70.67   0.0020000
  123.18   61.47  -51.25   0.0020000
  -76.57  143.14  -26.36   0.0020000
 -103.31   92.46   82.72   0.0020000
  -57.02   87.50  136.60   0.0020000
   61.92  100.46  -15.23   0.0020000
  111.42  165.40  162.29   0.0020000
   -9.43  171.30   41.27   0.0020000
   15.61  156.63 -172.07   0.0020000
 -152.33   40.38   34.85   0.0020000
   56.11  159.77  167.17   0.0020000
  -51.07  129.16   28.30   0.0020000
  -50.53  106.58 -119.92   0.0020000
   71.63   83.25  -98.84   0.0020000
  -54.91   98.26   -5.30   0.0020000
  -32.12   78.40  -69.91   0.0020000
  109.50  152.58  -20.21   0.0020000
 -118.13  105.58  -16.47   0.0020000
   28.53   15.93  100.79   0.0020000
 -106.01  144.67  -53.40   0.0020000
 -118.67   42.91  -78.26   0.0020000
  148.24   25.13   31.59   0.0020000
  -86.23  161.49 -155.29   0.0020000
  -50.15   87.06  175.28   0.0020000
  -32.19  174.59  138.45   0.0020000
   73.07   91.33  -54.44   0.0020000
  -51.57  111.82 -125.42   0.0020000
  -42.23   19.24 -131.72   0.0020000
  -52.37   72.92 -172.94   0.0020000
  128.87   68.29  174.85   0.0020000
   35.90  159.44  -92.38   0.0020000
  128.03   82.89   10.86   0.0020000
  126.46   73.39 -127.95   0.0020000
  -60.15  133.29  -70.99   0.0020000
  -55.06   87.22 -178.23   0.0020000
  124.78   78.88 -168.22   0.0020000
  -55.59  106.50  172.00   0.0020000
  -54.75   79.83    6.80   0.0020000
 -172.16   25.93 -121.71   0.0020000
  130.05   86.75  -93.16   0.0020000
  -64.83   77.92 -104.73   0.0020000
  -54.43   82.26    5.83   0.0020000
  120.60  171.38   51.04   0.0020000
  123.73   69.41   69.25   0.0020000
  123.98  153.05  119.94   0.0020000
  129.33   98.78  111.50   0.0020000
  125.21   95.34 -120.46   0.0020000
 -113.66   91.23  157.28   0.0020000
   60.55   83.37 -100.01   0.0020000
  144.86   79.65 -166.43   0.0020000
  -51.22   81.45   -3.36   0.0020000
   -7.92   36.90  -55.86   0.0020000
  -56.61  147.60    3.44   0.0020000
 -100.50  166.19 -109.90   0.0020000
  -55.14   81.38 -106.30   0.0020000
  -66.27  114.65   46.33   0.0020000
 -121.03  101.34 -149.71   0.0020000
   58.93  150.41  171.88   0.0020000
 -132.53  120.75   40.02   0.0020000
 -104.75  111.49 -179.89   0.0020000
 -110.31  101.48   90.38   0.0020000
  122.29   73.58 -107.84   0.0020000
 -117.55   70.70 -167.20   0.0020000
  -55.89   72.29 -171.21   0.0020000
  -55.70   50.54  148.70   0.0020000
  118.06   33.98   71.09   0.0020000
 -136.32  149.87  156.10   0.0020000
  -51.15  108.89   40.97   0.0020000
  -50.87  139.38  -84.24   0.0020000
  122.54  100.59 -129.20   0.0020000
 -176.43   61.20 -152.83   0.0020000
 -111.36   83.30  -74.37   0.0020000
  -62.27  144.77   47.85   0.0020000
  120.49   44.20  129.78   0.0020000
 -158.87  157.44  132.87   0.0020000
  -58.15   49.15  -50.78   0.0020000
  -63.72  157.31  -12.02   0.0020000
 -140.27  165.85  -29.67   0.0020000
  131.47   88.03  -57.83   0.0020000
  -57.70   99.99 -126.98   0.0020000
  -56.01  100.66  113.97   0.0020000
  140.41  150.96 -156.03   0.0020000
 -163.31  126.90  -93.55   0.0020000
 -113.33  103.14  122.26   0.0020000
 -129.25  129.93  106.33   0.0020000
  -58.40  125.85  -84.43   0.0020000
 -162.89  139.49  -44.05   0.0020000
  125.58  109.63    2.41   0.0020000
  100.70  157.90  151.60   0.0020000
  -18.60  129.32   35.37   0.0020000
 -159.96  139.36  -99.77   0.0020000
  124.70   75.47  -51.94   0.0020000
 -154.84  148.65 -161.40   0.0020000
   67.85   73.76   86.63   0.0020000
 -171.34  166.65  179.33   0.0020000
 -125.28  123.53  -67.04   0.0020000
   -1.50  129.79   78.23   0.0020000
  125.09   84.69   63.14   0.0020000
  -56.02  107.49 -136.77   0.0020000
  -53.78   13.69 -117.26   0.0020000
 -103.67  147.43   68.45   0.0020000
  -54.60   40.95  169.70   0.0020000
   64.84   79.77 -154.77   0.0020000
  -91.80   41.14   37.91   0.0020000
  125.23  168.12 -111.42   0.0020000
  -57.14   68.58 -175.90   0.0020000
  124.50  103.59 -133.46   0.0020000
 -111.76   69.70  154.93   0.0020000
  158.64  160.79   92.74   0.0020000
  159.38  143.86  160.62   0.0020000
  -49.34   64.64   -4.51   0.0020000
  -18.79   27.58  140.72   0.0020000
  -61.43   20.21   70.31   0.0020000
  129.56  112.01    2.63   0.0020000
  -82.36  175.75   27.77   0.0020000
  -54.84   90.88 -120.24   0.0020000
  -55.38   86.80 -177.36   0.0020000
 -126.45   61.15 -178.17   0.0020000
  124.67   98.57 -178.62   0.0020000
 -110.73   94.59   87.16   0.0020000
  -40.46  130.81  111.77   0.0020000
  -58.09  102.33  113.67   0.0020000
  126.68   47.76  130.23   0.0020000
  134.10  138.55  146.44   0.0020000
 -166.60   30.68 -128.78   0.0020000
   60.35  112.54 -171.57   0.0020000
  -54.34   86.18   62.68   0.0020000
 -131.75   62.93   80.42   0.0020000
  -55.65   84.76 -166.35   0.0020000
  126.50   89.59   12.11   0.0020000
  -45.74  156.45   10.98   0.0020000
  111.52   90.65 -103.53   0.0020000
  -55.74   86.54  175.68   0.0020000
   63.58  145.44  177.49   0.0020000
  -53.79   15.70 -176.62   0.0020000
  -55.18   88.62 -112.90   0.0020000
  -58.19  132.05  110.76   0.0020000
  -53.74  108.38   18.58   0.0020000
   95.98   68.08  -13.00   0.0020000
  125.49   81.11   18.03   0.0020000
  -56.53   95.16   56.03   0.0020000
  -44.06   99.66  -86.08   0.0020000
   74.80  168.34   65.05   0.0020000
 -161.43   29.70   46.98   0.0020000
  -50.61  117.35   71.20   0.0020000
 -112.98   76.49   89.09   0.0020000
  -56.06  151.55   69.39   0.0020000
   64.06  111.16 -170.52   0.0020000
  -54.73   96.69 -123.38   0.0020000
  124.39  104.15  -57.84   0.0020000
   86.18   19.14   42.64   0.0020000
   65.63  104.56 -143.39   0.0020000
   45.16   36.94   81.05   0.0020000
  -48.88  159.49  -52.24   0.0020000
   86.60   99.39   30.67   0.0020000
  121.99  131.90  176.40   0.0020000
   64.25   85.12   12.11   0.0020000
  138.16  158.70  -44.17   0.0020000
    0.40   49.58 -131.87   0.0020000
  135.72  125.04   29.94   0.0020000
  120.50  129.54 -130.59   0.0020000
 -115.12   87.15   47.05   0.0020000
  -56.35  115.00  111.54   0.0020000
   69.83  101.12  -98.76   0.0020000
   92.47   14.24 -143.10   0.0020000
 -114.82   90.10  175.65   0.0020000
  -53.30  102.24   -7.76   0.0020000
 -141.06   46.00   84.22   0.0020000
  131.58  102.64   40.88   0.0020000
 -152.23   20.41  -79.54   0.0020000
  124.58   88.42  112.23   0.0020000
  -57.97   98.80   60.15   0.0020000
  124.62  107.84  172.49   0.0020000
  128.33  113.21  -61.37   0.0020000
  123.77   70.35 -170.46   0.0020000
  122.27  154.87   -6.29   0.0020000
  -50.74   90.31 -118.89   0.0020000
  120.97   85.91  127.33   0.0020000
  -71.14  169.33  -20.44   0.0020000
  -55.67   96.10  176.70   0.0020000
  108.49  154.24  -21.17   0.0020000
  110.31   42.99  140.19   0.0020000
 -170.23   46.59  -18.01   0.0020000
 -111.93   14.74  -58.81   0.0020000
  -56.36  126.11 -111.70   0.0020000
   66.92   77.74  -87.59   0.0020000
 -144.87  164.08 -154.14   0.0020000
  -55.78   67.15  -55.73   0.0020000
   27.86   22.21  -19.46   0.0020000
  -56.11   71.30   69.49   0.0020000
 -133.56   44.69  -44.00   0.0020000
  -53.16  134.63   95.00   0.0020000
  142.23  153.90  140.40   0.0020000
  125.35   31.05  163.97   0.0020000
 -124.99  130.86  -12.29   0.0020000
  -44.34   95.14  179.46   0.0020000
  -53.69   96.61  -53.30   0.0020000
   46.47   40.03 -101.13   0.0020000
  120.25  140.53  111.97   0.0020000
  119.86   92.87  116.29   0.0020000
  110.82  165.63  102.00   0.0020000
  124.90   90.88  -61.10   0.0020000
 -120.21   92.42  -78.88   0.0020000
  119.91   50.44  131.45   0.0020000
  -45.92   73.48   70.06   0.0020000
  135.53  146.78 -156.97   0.0020000
 -137.28  150.38  -85.12   0.0020000
  122.95   56.01 -104.86   0.0020000
   46.89   35.64   77.41   0.0020000
   42.79   54.26  -38.90   0.0020000
   31.46   17.06  -22.63   0.0020000
 -170.08   27.80  115.86   0.0020000
  127.02   93.42   14.60   0.0020000
  170.51   22.53   14.03   0.0020000
   10.91   54.01 -140.66   0.0020000
  131.45   92.91  -48.30   0.0020000
  124.97  121.82 -101.80   0.0020000
 -174.43  132.31 -170.81   0.0020000
 -156.09   53.58  154.47   0.0020000
 -114.06   78.70   56.04   0.0020000
  128.80  100.58   59.27   0.0020000
   98.29  160.68  -31.51   0.0020000
  -55.35   79.85 -112.96   0.0020000
  -53.69   87.60 -107.40   0.0020000
   95.91  158.72  -93.23   0.0020000
  -56.93   64.36 -119.43   0.0020000
  -64.43  107.61   41.72   0.0020000
  -55.82   83.51 -164.27   0.0020000
  121.79   46.87 -115.34   0.0020000
  -17.71  176.24 -147.22   0.0020000
   32.81  144.82  146.82   0.0020000
  105.62  100.65 -172.57   0.0020000
  -56.59  121.66 -177.11   0.0020000
  117.70  139.44 -132.84   0.0020000
  -55.01   73.87   65.90   0.0020000
 -114.46   99.13  160.20   0.0020000
  141.12  136.70  -13.43   0.0020000
  127.61  114.57  -64.95   0.0020000
 -117.58  164.19  113.17   0.0020000
  -53.71   67.48   10.75   0.0020000
  123.32  113.41   59.17   0.0020000
   57.63   67.76 -159.08   0.0020000
  119.93  141.36  171.64   0.0020000
 -134.13   28.43  -38.80   0.0020000
  124.52  104.95  -17.80   0.0020000
   -7.63    6.90 -102.76   0.0020000
   14.82   46.74  162.07   0.0020000
  154.63   32.20   20.10   0.0020000
 -122.51   43.72 -172.81   0.0020000
  131.33   80.05    9.42   0.0020000
   71.18  101.83   96.86   0.0020000
    4.31  103.43  -27.51   0.0020000
  -55.01   83.10   52.14   0.0020000
  -54.46  106.70  114.48   0.0020000
   11.37  173.24 -178.14   0.0020000
 -130.36  152.92  101.47   0.0020000
  143.27   15.58 -136.29   0.0020000
   67.07   92.63  -73.03   0.0020000
  -68.58  102.97  164.79   0.0020000
  115.09   38.36   75.96   0.0020000
  135.52   14.28   -7.44   0.0020000
   64.67   98.79   39.80   0.0020000
  114.74   33.06   15.67   0.0020000
  123.97  100.23 -171.71   0.0020000
  129.54   22.89  -67.49   0.0020000
  122.70  109.54 -130.33   0.0020000
 -130.14   46.80  -45.05   0.0020000
 -131.38   55.32  134.55   0.0020000
  125.35   83.63   64.66   0.0020000
  -63.56   66.88 -165.20   0.0020000
  -47.17   94.46  125.46   0.0020000
  127.00   79.91   61.29   0.0020000
  -54.17   99.94  -10.53   0.0020000
  -59.17  136.57   -5.84   0.0020000
    1.24   41.48  117.56   0.0020000
  -55.00  113.86   83.75   0.0020000
  164.77    8.51  -95.57   0.0020000
  -55.21   85.44  128.33   0.0020000
  -56.86   58.29    8.16   0.0020000
  -32.10  151.81  147.55   0.0020000
 -164.48  145.63  -48.91   0.0020000
  125.99   13.57  123.30   0.0020000
  -56.07  108.61 -127.73   0.0020000
   -1.08  112.54 -138.87   0.0020000
  154.59  120.73  -70.98   0.0020000
  -46.19  163.07   67.16   0.0020000
 -131.99  150.38  -19.49   0.0020000
  -71.64   64.76   20.33   0.0020000
 -157.06  157.15  -45.66   0.0020000
  129.09   37.07  -92.40   0.0020000
  -55.18   68.15  136.87   0.0020000
  -43.92   80.94   -4.45   0.0020000
  128.62  102.13 -117.92   0.0020000
  -28.23   31.22   24.36   0.0020000
  110.56   12.10 -101.56   0.0020000
  112.88   88.29 -173.19   0.0020000
 -140.91   31.02  147.99   0.0020000
 -114.54   79.82  173.85   0.0020000
   96.16  114.13  106.00   0.0020000
  123.60  165.97 -125.62   0.0020000
 -174.51  114.96   14.02   0.0020000
  137.24   66.75   91.75   0.0020000
  -13.55   44.08  108.35   0.0020000
  122.91  169.21  -66.42   0.0020000
  127.29   88.79  -50.04   0.0020000
  -58.81  113.73  -11.17   0.0020000
   97.26   66.57  -22.35   0.0020000
  -47.10  117.25   61.43   0.0020000
  -55.24  111.98   51.46   0.0020000
 -122.59   92.99  -74.73   0.0020000
TEXTURE AT STRAIN =    2.0000
   1.154   3.546   0.244  <-- length of average ellipsoid axes for phase
 -157.00   90.07   90.01  <-- Euler angles of average ellipsoid axes for phase
B       500
   49.34  143.87  -16.32   0.0020000
  137.02   18.74   60.19   0.0020000
  107.78   16.48   30.34   0.0020000
  126.46   89.12   58.62   0.0020000
  126.60   82.48    4.50   0.0020000
  -31.85    2.66 -129.07   0.0020000
  -52.98   82.09  -52.08   0.0020000
  146.05  170.62    7.21   0.0020000
  -54.35   74.48  129.05   0.0020000
 -126.53  161.37 -145.04   0.0020000
  -79.35  169.73  -37.94   0.0020000
    7.46  176.51  108.39   0.0020000
  -54.18   71.41   57.29   0.0020000
  -53.64  110.83  171.30   0.0020000
  -36.96  134.12  -35.62   0.0020000
 -115.01   80.59 -170.67   0.0020000
   72.35    5.64 -173.36   0.0020000
   28.30   46.92   30.98   0.0020000
   60.14   70.57 -157.70   0.0020000
 -141.74   13.38  160.20   0.0020000
  124.25  122.95  -49.01   0.0020000
  -56.46  160.16 -134.03   0.0020000
 -126.65    6.28   25.55   0.0020000
  113.10   17.61 -155.10   0.0020000
  126.62   88.45   60.52   0.0020000
   88.45  125.54  -41.13   0.0020000
  -55.54   88.49  -63.69   0.0020000
  -54.81   69.97 -170.65   0.0020000
 -109.50   98.51  -99.81   0.0020000
  -55.41  112.51  -69.08   0.0020000
  125.89   85.91   62.68   0.0020000
  -61.67   44.61  -44.09   0.0020000
  125.05  111.43  109.82   0.0020000
 -110.00   89.21  -99.71   0.0020000
  -59.27  128.55 -130.06   0.0020000
  -54.63   64.74 -110.58   0.0020000
  -61.39  154.58 -138.21   0.0020000
 -169.66   32.14 -173.00   0.0020000
  176.90  112.36  115.98   0.0020000
  -53.25   75.65   68.90   0.0020000
 -173.90  155.53   49.89   0.0020000
  122.38   69.27   75.43   0.0020000
  126.50   79.38 -173.90   0.0020000
  -62.63   47.13  133.22   0.0020000
  125.63   71.31 -111.24   0.0020000
  127.24   93.73 -125.58   0.0020000
 -142.48   24.58  -16.24   0.0020000
  126.64   84.11  123.58   0.0020000
  -57.09   59.90 -170.43   0.0020000
  -84.95   21.06 -176.73   0.0020000
 -119.36   11.41 -102.15   0.0020000
  -54.33   95.00  172.71   0.0020000
  -53.75  113.72 -128.45   0.0020000
  114.08  168.88  -24.52   0.0020000
   25.20   36.22 -116.78   0.0020000
 -115.15  102.29  -22.83   0.0020000
   67.43   96.70  -83.52   0.0020000
  -63.05   46.25   68.06   0.0020000
 -118.93    2.60  -42.06   0.0020000
  -51.94   96.27  114.63   0.0020000
  110.12    5.04  -31.17   0.0020000
  -53.75  104.28  171.04   0.0020000
 -144.56   53.39  -94.47   0.0020000
  113.13  174.18  -25.73   0.0020000
  -53.94   84.64 -115.85   0.0020000
  125.93   75.66 -112.81   0.0020000
  -65.48  160.11 -143.19   0.0020000
  -56.52  126.61 -131.84   0.0020000
  145.49   18.57  111.27   0.0020000
  127.13   60.87 -126.73   0.0020000
  -52.89   79.96   10.72   0.0020000
  -53.26   98.72  174.97   0.0020000
   61.22    7.76  137.66   0.0020000
 -114.24   95.49  -49.30   0.0020000
  -14.19  171.74   86.95   0.0020000
 -103.46  174.86   57.61   0.0020000
  -69.02  155.49 -149.46   0.0020000
  117.86   46.00   73.32   0.0020000
  126.03   75.57   67.90   0.0020000
  -66.44  157.60   36.09   0.0020000
  125.98   74.22 -172.35   0.0020000
   15.38    7.28 -176.35   0.0020000
 -103.37  167.84  118.17   0.0020000
  -54.11  100.06  173.82   0.0020000
  -14.25    1.25   33.30   0.0020000
  126.40   79.00 -173.79   0.0020000
  126.85   85.36  123.61   0.0020000
   61.24   83.00   99.89   0.0020000
  -53.87  111.08   51.14   0.0020000
  -53.02   80.55  -53.82   0.0020000
  109.13   18.43  -31.09   0.0020000
   57.21   11.17   21.38   0.0020000
   62.65   71.04 -174.89   0.0020000
  -56.28  146.85 -130.52   0.0020000
  -53.46   94.65   -2.77   0.0020000
  116.45  161.75 -141.54   0.0020000
   63.73  160.01  161.36   0.0020000
   66.47   85.86  -46.57   0.0020000
   60.07  107.94  -77.63   0.0020000
  127.12   85.09   62.81   0.0020000
   70.03   85.40  -35.46   0.0020000
  126.92   82.65   66.00   0.0020000
  125.17   69.24    8.59   0.0020000
  116.60  134.71  105.28   0.0020000
  -53.53   97.32   77.40   0.0020000
  126.13   90.14  -60.45   0.0020000
   -7.04    9.41   25.97   0.0020000
  -55.84   65.06  129.32   0.0020000
  -54.12  110.45 -129.18   0.0020000
  -53.31   87.61 -117.90   0.0020000
  -68.92   23.23  -93.51   0.0020000
   17.20  141.76   62.32   0.0020000
 -142.18  136.60   94.45   0.0020000
  125.36   62.59 -122.22   0.0020000
  118.81  120.10  -74.09   0.0020000
  122.55  120.59   -9.81   0.0020000
   70.31   77.23   26.47   0.0020000
 -100.94   19.01  -59.63   0.0020000
  125.62  110.43   -4.97   0.0020000
  -46.74  158.00   -2.83   0.0020000
  -28.05    7.41  -72.99   0.0020000
  -52.99   98.05  103.41   0.0020000
    0.19   27.93 -164.67   0.0020000
 -141.30   49.68  148.46   0.0020000
  121.59  164.73   43.30   0.0020000
   11.50  160.84   -6.20   0.0020000
   71.69   85.07  -85.61   0.0020000
  119.05  131.53  -74.24   0.0020000
  124.94   62.45 -110.84   0.0020000
  -75.70  169.29  -94.32   0.0020000
  -53.05   82.89    4.93   0.0020000
  174.36   99.31  137.58   0.0020000
  -53.09   94.26 -112.75   0.0020000
 -133.71   23.51  -84.49   0.0020000
  122.33  124.51  170.00   0.0020000
 -133.47  132.65  -76.67   0.0020000
 -141.17   39.92  143.47   0.0020000
  126.55   82.78  130.04   0.0020000
 -109.45   90.82   20.80   0.0020000
  -56.43  125.05  168.39   0.0020000
 -104.03  166.49  117.56   0.0020000
   87.32  158.91  115.96   0.0020000
  124.98   73.93  121.72   0.0020000
   14.70   10.59   64.11   0.0020000
  125.57  103.02   58.75   0.0020000
  126.41   99.47   53.23   0.0020000
  125.60   72.03  128.12   0.0020000
   67.62   80.73  113.06   0.0020000
  -53.15   93.41  -96.17   0.0020000
   68.95   89.72  137.47   0.0020000
  123.05  122.03   48.78   0.0020000
  -54.43  101.70  -67.02   0.0020000
   65.06   78.47   27.09   0.0020000
 -178.90   55.51   63.57   0.0020000
 -112.29   95.16 -111.93   0.0020000
   86.79  164.67 -171.54   0.0020000
  176.22  158.79  -80.56   0.0020000
  -49.96  165.80   -8.40   0.0020000
  126.53   91.03   59.62   0.0020000
  126.36   90.14 -127.40   0.0020000
  -54.84  118.34   52.75   0.0020000
  120.73   52.32 -170.49   0.0020000
 -111.76   98.04   31.18   0.0020000
  124.61  140.76 -137.69   0.0020000
   66.47   84.61   78.50   0.0020000
  -54.43  121.99   29.49   0.0020000
  -79.29   16.26   97.67   0.0020000
   53.90    4.94  145.15   0.0020000
   67.00   84.93  175.82   0.0020000
  123.11   65.46  129.46   0.0020000
  -53.41   96.80 -123.92   0.0020000
  -90.41  169.60   11.04   0.0020000
  117.86   13.21 -159.32   0.0020000
 -108.29   90.23  -29.45   0.0020000
 -156.57  156.82    4.97   0.0020000
  126.31   91.90  -60.12   0.0020000
  126.31   99.04  114.08   0.0020000
  124.75  116.49  170.23   0.0020000
 -173.52  115.14  -87.03   0.0020000
  120.39   64.28 -108.97   0.0020000
  -59.74   53.93  131.07   0.0020000
  122.38   89.66 -179.58   0.0020000
  124.90  126.50  111.11   0.0020000
 -160.86   43.60  -83.80   0.0020000
  124.84  105.41  110.42   0.0020000
  122.41   56.50    8.87   0.0020000
  125.84   72.34 -170.55   0.0020000
  -53.12  100.78   57.80   0.0020000
  126.94  101.20 -133.26   0.0020000
  126.64   86.29  -58.13   0.0020000
  125.76   65.18  -55.10   0.0020000
  124.89   66.72  -51.64   0.0020000
  -82.39  154.77  -35.66   0.0020000
 -108.84   95.24   83.07   0.0020000
  -54.06   86.81  129.93   0.0020000
   66.02   95.86  -20.95   0.0020000
   96.48  169.75 -162.12   0.0020000
  -23.30  174.44   77.68   0.0020000
   -3.61  165.47 -141.70   0.0020000
 -163.19   29.34    1.81   0.0020000
   46.99  166.34 -151.40   0.0020000
  -56.76  122.62   48.80   0.0020000
  -52.96  101.33 -125.77   0.0020000
   71.21   88.52  -96.70   0.0020000
  -53.38   96.92   -4.09   0.0020000
  -52.24   83.06  -59.93   0.0020000
  100.82  161.02   20.31   0.0020000
 -114.40   99.17  -23.26   0.0020000
   19.80    9.72   59.03   0.0020000
 -118.55  156.91  -43.26   0.0020000
 -136.41   34.93  -90.56   0.0020000
  125.77   19.26   11.76   0.0020000
  -96.05  167.24 -114.47   0.0020000
  -52.74   88.40 -179.20   0.0020000
  -44.84  176.33  176.11   0.0020000
   66.92   94.10  -56.31   0.0020000
  -53.23  105.52 -127.87   0.0020000
  -60.60   13.31 -160.91   0.0020000
  -53.16   77.92 -172.09   0.0020000
  126.42   74.73 -173.86   0.0020000
   26.16  166.77  -52.34   0.0020000
  127.22   84.02    5.10   0.0020000
  126.19   78.56 -116.54   0.0020000
  -60.61  131.72  -71.06   0.0020000
  -53.39   87.84 -178.02   0.0020000
  126.50   80.10 -172.75   0.0020000
  -53.88  103.55  172.75   0.0020000
  -53.46   81.94    5.90   0.0020000
  161.66   16.75 -144.33   0.0020000
  126.94   87.61 -102.96   0.0020000
  -58.91   78.85 -109.01   0.0020000
  -53.32   83.93    4.73   0.0020000
  102.82  174.06   83.90   0.0020000
  125.71   73.20   68.21   0.0020000
  110.44  159.97  152.67   0.0020000
  127.24   96.29  114.60   0.0020000
  126.58   93.85 -122.69   0.0020000
 -109.88   88.24  156.51   0.0020000
   66.36   87.18  -97.61   0.0020000
  128.03   82.64 -175.48   0.0020000
  -52.91   84.57    3.23   0.0020000
  -45.82   30.60  -62.50   0.0020000
  -66.51  153.44   36.47   0.0020000
 -108.53  170.52  -67.20   0.0020000
  -53.49   81.98 -111.64   0.0020000
  -60.21  113.14   48.70   0.0020000
 -114.18   99.52 -150.69   0.0020000
   48.02  160.22 -150.46   0.0020000
 -166.16  121.51   25.79   0.0020000
 -113.70  105.29  167.32   0.0020000
 -108.16   99.29   88.75   0.0020000
  125.47   75.66 -111.43   0.0020000
 -116.57   77.60 -157.31   0.0020000
  -54.14   75.81 -171.50   0.0020000
  -58.78   56.27  133.00   0.0020000
  111.77   26.65   77.80   0.0020000
 -146.06  159.63 -164.47   0.0020000
  -53.20  105.41   51.09   0.0020000
  -61.10  138.11  -74.95   0.0020000
  125.81   99.01 -127.24   0.0020000
  167.62   46.73 -163.91   0.0020000
 -111.49   77.50  -72.06   0.0020000
  -68.24  151.93   39.31   0.0020000
  117.70   45.03  133.28   0.0020000
 -172.48  166.21  169.03   0.0020000
  -59.45   54.09  -48.22   0.0020000
  -75.29  163.80   26.48   0.0020000
 -147.09  171.19   14.02   0.0020000
  127.42   88.63  -59.39   0.0020000
  -54.31   98.62 -125.67   0.0020000
  -53.71   98.83  114.69   0.0020000
  120.27  156.35 -136.84   0.0020000
 -174.32  136.05  -65.75   0.0020000
 -116.16  103.43  111.12   0.0020000
 -154.43  137.71   86.35   0.0020000
  -57.60  121.13  -71.57   0.0020000
 -176.05  151.16  -12.27   0.0020000
  126.03  103.51   -6.63   0.0020000
   89.27  164.78 -169.08   0.0020000
  -53.34  129.41   30.75   0.0020000
 -171.19  150.49  -67.09   0.0020000
  126.33   78.09  -53.21   0.0020000
 -166.98  159.16 -124.66   0.0020000
   70.87   77.52   88.64   0.0020000
  175.49  172.18 -143.47   0.0020000
 -151.23  132.11  -91.52   0.0020000
  -39.06  140.60   76.40   0.0020000
  126.65   85.46   62.47   0.0020000
  -53.98  105.34 -129.77   0.0020000
  -71.00    9.43 -150.31   0.0020000
 -114.94  158.78   97.91   0.0020000
  -63.07   41.69  137.79   0.0020000
   69.37   83.03 -152.76   0.0020000
 -103.69   27.25   47.98   0.0020000
  106.32  171.71  -92.11   0.0020000
  -54.80   73.82 -170.96   0.0020000
  126.26  101.70 -128.80   0.0020000
 -110.41   72.44  150.05   0.0020000
  137.11  167.34  118.54   0.0020000
  126.33  146.95  172.67   0.0020000
  -53.92   72.02    7.30   0.0020000
  -47.88   21.11  124.63   0.0020000
  -75.77   14.26   34.09   0.0020000
  126.44  105.14   -7.46   0.0020000
  -88.33  177.01   72.66   0.0020000
  -53.33   90.86 -120.01   0.0020000
  -53.45   87.45 -177.66   0.0020000
 -146.22   49.81 -156.10   0.0020000
  126.36   95.78  176.63   0.0020000
 -108.24   94.92   86.82   0.0020000
  -55.22  122.80  111.41   0.0020000
  -54.56  100.20  113.61   0.0020000
  121.96   53.73  131.30   0.0020000
  120.16  135.14  166.25   0.0020000
  168.76   19.67 -152.19   0.0020000
   54.08  125.14  172.69   0.0020000
  -53.25   87.15   62.50   0.0020000
 -166.00   61.32   93.71   0.0020000
  -53.57   84.51 -171.99   0.0020000
  126.86   88.62    4.84   0.0020000
  -62.27  162.61   39.72   0.0020000
  117.24   93.10 -109.67   0.0020000
  -53.62   88.39 -179.58   0.0020000
   51.05  156.84 -150.16   0.0020000
  -70.51   10.90  149.10   0.0020000
  -53.43   88.03 -116.99   0.0020000
  -59.47  128.04  108.66   0.0020000
  -54.99  104.73    3.63   0.0020000
   89.67   59.81  -21.13   0.0020000
  126.71   81.70   11.20   0.0020000
  -53.73   94.54   57.25   0.0020000
  -52.34   98.77  -73.84   0.0020000
   64.29  171.77  105.53   0.0020000
  178.39   18.70   18.86   0.0020000
  -54.77  111.16   56.42   0.0020000
 -109.45   78.53   90.45   0.0020000
  -68.48  158.03   94.14   0.0020000
   56.07  124.08  172.95   0.0020000
  -53.35   95.60 -123.05   0.0020000
  126.05   99.66  -64.96   0.0020000
   77.04   12.99    1.40   0.0020000
   69.50  100.67 -146.59   0.0020000
   33.23   26.63   51.14   0.0020000
  -64.53  165.33  -22.89   0.0020000
   73.36   97.64   29.74   0.0020000
  119.84  126.92  169.30   0.0020000
   67.43   89.12   15.38   0.0020000
  119.63  164.95  -18.72   0.0020000
  -32.33   38.33 -140.62   0.0020000
  124.94  117.26   49.33   0.0020000
  121.09  125.58 -130.17   0.0020000
 -112.07   83.32   47.32   0.0020000
  -54.67  110.26  111.80   0.0020000
   70.80  102.20  -97.50   0.0020000
   82.79    9.96  175.80   0.0020000
 -112.83   88.35  175.91   0.0020000
  -52.98   99.38   -5.81   0.0020000
 -157.64   37.12   81.62   0.0020000
  127.26  100.34   51.16   0.0020000
 -164.34   12.69 -117.08   0.0020000
  126.46   89.88  117.66   0.0020000
  -54.34   96.57   56.60   0.0020000
  126.00  103.88  171.75   0.0020000
  126.45  106.05  -68.57   0.0020000
  125.81   74.00 -171.74   0.0020000
  108.94  161.75   30.90   0.0020000
  -52.63   90.32 -119.55   0.0020000
  125.23   85.93  123.39   0.0020000
  -82.39  172.49   18.75   0.0020000
  -53.53   95.06  177.15   0.0020000
   98.64  162.16   19.58   0.0020000
  108.70   34.44  144.24   0.0020000
  171.65   32.62  -40.05   0.0020000
 -121.61   10.23  -99.78   0.0020000
  -57.49  118.92 -122.72   0.0020000
   70.60   79.01  -86.84   0.0020000
 -152.54  170.15 -111.38   0.0020000
  -54.41   73.11  -51.05   0.0020000
   17.03   13.71  -58.44   0.0020000
  -54.23   75.07   68.90   0.0020000
 -149.28   34.17  -36.24   0.0020000
  -59.69  130.39  106.99   0.0020000
  121.85  160.22  164.14   0.0020000
  113.65   24.98  143.34   0.0020000
 -148.09  137.70  -32.47   0.0020000
  -52.34   93.18  178.61   0.0020000
  -53.13   94.04  -60.52   0.0020000
   31.50   29.38 -114.19   0.0020000
  113.84  143.60  103.29   0.0020000
  124.50   92.52  117.18   0.0020000
   95.98  169.91  137.33   0.0020000
  126.61   90.59  -61.00   0.0020000
 -114.27   88.87  -80.39   0.0020000
  121.33   53.28  129.59   0.0020000
  -52.78   78.71   66.99   0.0020000
  118.55  150.45 -137.63   0.0020000
 -146.79  160.00  -45.16   0.0020000
  123.91   62.35 -109.51   0.0020000
   36.19   26.00   41.49   0.0020000
   14.81   50.64  -23.91   0.0020000
   23.11   10.54  -64.33   0.0020000
  163.86   17.98   93.08   0.0020000
  126.52   91.91    5.44   0.0020000
  143.91   15.47   -6.01   0.0020000
    0.08   44.09 -168.84   0.0020000
  127.07   91.47  -57.72   0.0020000
  123.33  116.66  -74.60   0.0020000
  165.34  144.86 -147.31   0.0020000
 -168.81   47.20  160.64   0.0020000
 -115.76   76.73   66.98   0.0020000
  127.14   96.93   55.24   0.0020000
   85.97  166.51    7.62   0.0020000
  -53.55   81.80 -113.93   0.0020000
  -53.05   87.10 -114.13   0.0020000
   84.29  165.30  -53.99   0.0020000
  -55.20   71.06 -111.36   0.0020000
  -58.51  107.00   48.91   0.0020000
  -53.63   83.48 -170.14   0.0020000
  119.93   50.82 -109.00   0.0020000
  -28.74  177.44 -107.85   0.0020000
   22.32  155.51 -176.67   0.0020000
  108.92  104.62  179.64   0.0020000
  -55.77  114.12  172.73   0.0020000
  113.18  143.29 -138.99   0.0020000
  -53.77   77.80   67.57   0.0020000
 -110.98   94.00  157.11   0.0020000
  122.31  131.33  -10.72   0.0020000
  126.32  107.26  -69.32   0.0020000
 -124.66  169.52  156.68   0.0020000
  -53.69   73.54    9.69   0.0020000
  125.12  107.10   51.57   0.0020000
   60.13   72.35 -155.03   0.0020000
  113.45  145.26  162.80   0.0020000
 -143.98   19.04  -77.96   0.0020000
  126.18  103.21  -10.64   0.0020000
  -23.79    3.93 -137.14   0.0020000
    3.23   35.59  132.04   0.0020000
  125.47   28.58    9.16   0.0020000
 -140.19   32.36 -157.16   0.0020000
  127.37   82.69    4.86   0.0020000
   71.68   97.15   93.66   0.0020000
   -5.30  104.89  -23.59   0.0020000
  -53.63   86.01   59.78   0.0020000
  -53.47  102.59  113.23   0.0020000
    0.95  175.66 -138.11   0.0020000
 -139.59  161.91  142.14   0.0020000
  126.02   10.68 -167.31   0.0020000
   68.55   87.95  -75.89   0.0020000
  -62.09  102.09  168.48   0.0020000
  110.93   30.81   82.67   0.0020000
  119.60    9.89  -40.89   0.0020000
   68.60   94.47   36.40   0.0020000
  108.88   24.49   22.77   0.0020000
  125.79   96.72  179.75   0.0020000
  114.43   16.73  -96.24   0.0020000
  125.32  106.12 -129.24   0.0020000
 -149.69   38.17  -29.83   0.0020000
 -157.75   47.73  156.32   0.0020000
  126.69   84.66   63.17   0.0020000
  -58.12   69.06 -168.79   0.0020000
  -52.55   92.80  119.61   0.0020000
  127.08   82.84   63.82   0.0020000
  -53.19   98.58   -6.13   0.0020000
  -62.98  135.94  -13.23   0.0020000
  -31.89   30.85  103.88   0.0020000
  -54.79  111.14  104.50   0.0020000
  150.45    5.48 -131.40   0.0020000
  -53.43   85.57  124.52   0.0020000
  -55.86   64.61    9.35   0.0020000
  -55.42  157.12  167.71   0.0020000
  178.01  157.09  -18.49   0.0020000
  111.59    9.52   87.11   0.0020000
  -54.15  105.13 -127.74   0.0020000
  -43.98  121.05 -139.81   0.0020000
  127.05  113.14  -66.39   0.0020000
  -62.20  168.16   99.19   0.0020000
 -141.83  160.18   19.67   0.0020000
  -65.60   63.37   15.54   0.0020000
 -169.61  165.86   -8.05   0.0020000
  117.70   35.15 -102.68   0.0020000
  -54.09   72.62  130.39   0.0020000
  -52.48   84.74    2.72   0.0020000
  126.98   97.97 -124.82   0.0020000
  -55.59   26.97   11.20   0.0020000
   98.68    8.55 -139.90   0.0020000
  118.96   88.65 -177.68   0.0020000
 -151.39   20.93  109.52   0.0020000
 -115.43   75.86 -176.18   0.0020000
   89.23  123.53   93.52   0.0020000
  106.83  170.27  -91.84   0.0020000
  177.40  117.77    9.01   0.0020000
  126.50   70.26   75.67   0.0020000
  -53.08   42.65  119.56   0.0020000
  105.62  172.58  -33.24   0.0020000
  127.07   88.16  -56.80   0.0020000
  -55.44  110.38   -8.83   0.0020000
   93.47   58.24  -26.43   0.0020000
  -53.33  109.18   52.50   0.0020000
  -53.96  106.87   51.49   0.0020000
 -116.50   89.65  -77.17   0.0020000
