TEXTURE AT STRAIN =    1.0000
   1.071   2.298   0.406  <-- length of average ellipsoid axes for phase
 -154.11   90.07   90.02  <-- Euler angles of average ellipsoid axes for phase
B       500
   71.00  130.20    7.09   0.0020000
  165.65   25.51   80.10   0.0020000
  120.61   22.87   66.35   0.0020000
  124.61   87.60   53.73   0.0020000
  125.06   81.02    5.84   0.0020000
  -13.24    4.75  -96.88   0.0020000
  -53.20   80.80  -46.00   0.0020000
  165.33  164.88  -23.15   0.0020000
  -56.25   70.60  129.57   0.0020000
 -116.33  151.70  176.01   0.0020000
  -66.60  165.49  -76.01   0.0020000
   17.14  174.72   67.29   0.0020000
  -38.34   68.13   39.56   0.0020000
  -49.04  118.32  170.34   0.0020000
   -0.69  120.98  -29.24   0.0020000
 -113.86   79.74  179.66   0.0020000
   78.67    8.28 -129.02   0.0020000
   55.79   53.02    9.93   0.0020000
   61.49   65.28 -164.61   0.0020000
 -132.79   20.15 -158.39   0.0020000
  147.19  126.89  -35.16   0.0020000
  -35.39  154.48 -153.72   0.0020000
 -117.00    8.90   66.86   0.0020000
  127.39   24.01 -122.67   0.0020000
  124.99   88.28   61.09   0.0020000
   95.74  114.96  -54.06   0.0020000
  -59.78   87.19  -71.69   0.0020000
  -55.87   63.70 -173.75   0.0020000
 -110.35   95.24 -100.98   0.0020000
  -57.95  117.98  -65.65   0.0020000
  122.45   85.45   64.59   0.0020000
  -52.70   42.33  -15.58   0.0020000
  124.20  118.27  111.65   0.0020000
 -110.30   83.26 -103.30   0.0020000
  -59.22  131.53 -130.01   0.0020000
  -47.57   55.88 -117.21   0.0020000
  -45.57  149.57 -161.81   0.0020000
 -158.73   44.06 -142.16   0.0020000
 -174.84  110.26  104.57   0.0020000
  -50.66   70.81   74.25   0.0020000
 -161.09  144.55   17.23   0.0020000
  117.41   69.98   90.10   0.0020000
  125.20   76.82 -173.04   0.0020000
  -64.19   47.97  135.06   0.0020000
  124.04   66.36 -110.76   0.0020000
  129.33   94.20 -133.00   0.0020000
 -131.15   35.01   17.79   0.0020000
  125.01   82.98  125.29   0.0020000
  -57.91   54.32 -170.89   0.0020000
  -77.60   31.53 -152.78   0.0020000
 -109.33   16.45  -61.37   0.0020000
  -57.79   94.62  166.85   0.0020000
  -43.73  121.71 -136.70   0.0020000
  131.67  163.81  -56.46   0.0020000
   40.53   44.71  -99.92   0.0020000
 -116.12  110.33  -13.68   0.0020000
   63.85  102.06  -78.48   0.0020000
  -57.79   43.32   59.56   0.0020000
 -104.11    3.45   -5.81   0.0020000
  -34.65   97.87  104.09   0.0020000
  122.31    7.16    7.60   0.0020000
  -55.21  106.51  165.34   0.0020000
 -122.09   64.03 -116.39   0.0020000
  132.10  171.33  -61.96   0.0020000
  -56.80   82.95 -117.21   0.0020000
  124.17   71.16 -116.48   0.0020000
  -51.18  153.72 -173.05   0.0020000
  -38.62  131.56 -155.43   0.0020000
  176.48   26.41  127.84   0.0020000
  162.35   61.16 -150.11   0.0020000
  -51.10   78.44   21.06   0.0020000
  -54.27  101.09  174.49   0.0020000
   67.60   11.64 -178.04   0.0020000
 -118.59   92.90  -50.08   0.0020000
    0.66  166.86   52.72   0.0020000
  -96.78  172.58   13.18   0.0020000
  -61.14  148.40  171.27   0.0020000
  121.31   44.32   67.54   0.0020000
  124.13   72.33   69.49   0.0020000
  -53.89  151.18    5.04   0.0020000
  124.57   68.89 -176.66   0.0020000
   24.33   12.33 -134.90   0.0020000
  -94.16  162.24   76.73   0.0020000
  -56.96  102.22  173.40   0.0020000
    2.13    2.58   67.97   0.0020000
  124.95   76.59 -173.00   0.0020000
  125.89   85.05  127.71   0.0020000
   53.33   85.60  101.79   0.0020000
  -52.00  119.00   56.94   0.0020000
  -52.01   76.10  -58.19   0.0020000
  121.23   25.22    7.86   0.0020000
   64.67   16.71   64.28   0.0020000
   67.62   75.80  173.36   0.0020000
  -29.67  145.06 -144.11   0.0020000
  -55.48   95.42   -4.25   0.0020000
  133.50  155.19 -168.80   0.0020000
   75.92  150.88  126.66   0.0020000
   63.96   82.56  -51.83   0.0020000
   65.49  111.33  -63.35   0.0020000
  126.72   83.45   63.21   0.0020000
   66.72   81.10  -37.89   0.0020000
  126.08   81.79   71.01   0.0020000
  123.13   64.50    9.64   0.0020000
  121.00  135.98  111.26   0.0020000
  -47.05   95.97   87.96   0.0020000
  123.07   90.61  -58.60   0.0020000
    8.19   15.96   60.39   0.0020000
  -57.36   59.42  129.28   0.0020000
  -54.31  117.56 -126.48   0.0020000
  -54.49   86.88 -118.17   0.0020000
  -57.36   30.13  -59.62   0.0020000
   29.35  132.14   34.34   0.0020000
 -116.34  126.64  118.89   0.0020000
  142.22   58.82 -142.72   0.0020000
  113.48  118.82  -92.84   0.0020000
  120.38  124.99  -11.56   0.0020000
   67.47   72.30   23.50   0.0020000
  -91.13   28.98  -20.63   0.0020000
  133.22  117.07    9.40   0.0020000
  -15.69  151.84  -17.99   0.0020000
  -10.47   12.33  -40.06   0.0020000
  -53.29   98.53   93.13   0.0020000
   14.91   40.15 -134.74   0.0020000
 -118.51   56.64  139.71   0.0020000
  140.59  158.36   14.92   0.0020000
   26.13  149.98  -40.28   0.0020000
   69.75   86.15  -85.59   0.0020000
  124.69  134.87  -71.27   0.0020000
  128.63   54.24 -118.85   0.0020000
  -62.48  164.78 -131.39   0.0020000
  -53.31   79.87    2.55   0.0020000
 -175.72  101.58  134.77   0.0020000
  -44.32   95.23 -100.91   0.0020000
 -121.37   34.34  -52.08   0.0020000
  129.74  131.08  179.39   0.0020000
 -116.92  122.95  -53.65   0.0020000
 -119.21   50.58  120.16   0.0020000
  125.13   82.54  136.28   0.0020000
 -100.69   85.01   18.87   0.0020000
  -41.59  130.68  143.41   0.0020000
  -94.94  160.04   76.30   0.0020000
   95.84  147.80   86.93   0.0020000
  124.24   68.25  109.09   0.0020000
   24.97   17.48  104.19   0.0020000
  127.81  107.40   71.94   0.0020000
  124.91  101.73   52.03   0.0020000
  123.90   67.90  128.62   0.0020000
   68.54   85.67  110.45   0.0020000
  -50.76   92.16  -90.35   0.0020000
   68.31   83.59  134.10   0.0020000
  128.67  129.45   47.36   0.0020000
  -57.54  104.51  -66.49   0.0020000
   58.88   73.78   23.30   0.0020000
 -171.80   64.53   80.37   0.0020000
 -113.54   91.69 -111.67   0.0020000
   98.25  157.67  149.10   0.0020000
 -164.77  147.39 -109.57   0.0020000
  -29.46  159.80  -33.28   0.0020000
  125.00   92.37   63.57   0.0020000
  124.93   88.75 -135.04   0.0020000
  -46.70  125.97   65.61   0.0020000
  118.04   50.98 -166.98   0.0020000
 -117.23  100.68   32.77   0.0020000
  155.86  139.78 -155.12   0.0020000
   63.95   78.83   72.51   0.0020000
  -24.99  124.98   33.31   0.0020000
  -67.24   23.20  136.73   0.0020000
   58.51    7.70 -168.81   0.0020000
   74.00   87.81  174.44   0.0020000
  118.77   62.30  133.21   0.0020000
  -54.93   98.05 -124.74   0.0020000
  -79.56  165.24  -29.18   0.0020000
  133.94   18.78 -128.36   0.0020000
 -111.16   90.74  -29.45   0.0020000
 -145.78  146.06  -31.72   0.0020000
  124.22   94.02  -54.60   0.0020000
  124.85  101.93  116.26   0.0020000
  129.30  124.99  178.35   0.0020000
 -137.91  115.98  -81.01   0.0020000
  114.75   62.68 -103.88   0.0020000
  -59.32   49.95  124.74   0.0020000
  116.85   89.99 -174.95   0.0020000
  153.78  131.27   95.96   0.0020000
 -139.96   51.27  -97.97   0.0020000
  121.39  108.09  108.86   0.0020000
  120.52   52.65   10.83   0.0020000
  124.19   69.04 -164.67   0.0020000
  -45.59  105.42   71.19   0.0020000
  127.22  102.36 -144.75   0.0020000
  125.17   85.68  -57.81   0.0020000
  135.91   58.32  -70.88   0.0020000
  123.23   61.47  -51.33   0.0020000
  -76.61  143.23  -26.40   0.0020000
 -103.34   92.47   82.73   0.0020000
  -56.92   87.49  136.61   0.0020000
   62.00  100.52  -15.29   0.0020000
  111.56  165.40  162.26   0.0020000
   -9.28  171.31   41.19   0.0020000
   15.71  156.65 -172.15   0.0020000
 -152.38   40.31   35.01   0.0020000
   56.18  159.81  167.11   0.0020000
  -51.20  129.05   26.75   0.0020000
  -50.61  106.56 -119.88   0.0020000
   71.71   83.28  -98.82   0.0020000
  -54.83   98.26   -5.30   0.0020000
  -32.01   78.31  -69.87   0.0020000
  109.73  152.54  -20.11   0.0020000
 -118.04  105.60  -16.53   0.0020000
   28.63   15.91  100.85   0.0020000
 -106.20  144.67  -53.61   0.0020000
 -118.43   43.03  -81.49   0.0020000
  148.04   25.15   32.46   0.0020000
  -86.14  161.51 -155.35   0.0020000
  -50.23   87.07  175.23   0.0020000
  -32.09  174.60  138.31   0.0020000
   73.03   91.32  -54.41   0.0020000
  -51.64  111.76 -125.43   0.0020000
  -42.33   19.26 -131.28   0.0020000
  -52.41   72.97 -172.99   0.0020000
  128.78   68.36  174.76   0.0020000
   35.97  159.47  -92.45   0.0020000
  127.97   82.92   10.84   0.0020000
  126.43   73.49 -127.86   0.0020000
  -60.11  133.31  -70.91   0.0020000
  -54.98   87.21 -178.26   0.0020000
  124.86   78.88 -168.22   0.0020000
  -55.51  106.50  172.04   0.0020000
  -54.67   79.82    6.75   0.0020000
 -172.09   25.93 -121.59   0.0020000
  129.96   86.74  -93.14   0.0020000
  -64.77   77.92 -104.70   0.0020000
  -54.37   82.27    5.77   0.0020000
  120.74  171.39   50.99   0.0020000
  123.80   69.41   69.21   0.0020000
  123.92  152.99  119.55   0.0020000
  129.25   98.78  111.49   0.0020000
  125.30   95.33 -120.44   0.0020000
 -113.56   91.24  157.24   0.0020000
   60.62   83.33  -99.93   0.0020000
  144.93   79.66 -166.30   0.0020000
  -51.29   81.46   -3.44   0.0020000
   -8.06   36.94  -55.52   0.0020000
  -56.65  147.54    2.86   0.0020000
 -100.38  166.21 -109.93   0.0020000
  -55.05   81.38 -106.29   0.0020000
  -66.29  114.81   46.31   0.0020000
 -121.15  101.46 -149.68   0.0020000
   58.92  150.44  171.76   0.0020000
 -133.00  121.20   39.83   0.0020000
 -104.67  111.34 -179.93   0.0020000
 -110.22  101.46   90.38   0.0020000
  122.38   73.57 -107.84   0.0020000
 -117.46   70.69 -167.15   0.0020000
  -55.80   72.30 -171.27   0.0020000
  -55.69   50.72  148.57   0.0020000
  118.17   34.02   71.10   0.0020000
 -136.26  149.92  156.07   0.0020000
  -51.24  108.85   40.63   0.0020000
  -50.91  139.28  -84.80   0.0020000
  122.65  100.59 -129.19   0.0020000
 -176.74   61.35 -153.09   0.0020000
 -111.27   83.29  -74.35   0.0020000
  -62.17  144.73   47.89   0.0020000
  120.54   44.23  129.70   0.0020000
 -158.79  157.46  132.80   0.0020000
  -58.11   49.25  -50.86   0.0020000
  -63.61  157.28  -12.05   0.0020000
 -140.18  165.87  -29.73   0.0020000
  131.38   88.03  -57.81   0.0020000
  -57.62  100.01 -126.99   0.0020000
  -55.93  100.68  113.97   0.0020000
  140.19  150.91 -156.95   0.0020000
 -163.61  126.83  -93.63   0.0020000
 -113.25  103.11  122.18   0.0020000
 -129.25  130.09  106.30   0.0020000
  -58.37  125.78  -83.10   0.0020000
 -163.08  139.46  -44.27   0.0020000
  125.61  109.50    2.31   0.0020000
  100.91  157.90  151.67   0.0020000
  -18.67  129.39   35.64   0.0020000
 -160.06  139.34  -99.87   0.0020000
  124.78   75.47  -51.97   0.0020000
 -154.87  148.70 -161.54   0.0020000
   67.95   73.81   86.59   0.0020000
 -171.20  166.66  179.29   0.0020000
 -125.25  123.61  -67.11   0.0020000
   -1.66  129.61   78.28   0.0020000
  125.18   84.68   63.15   0.0020000
  -55.93  107.46 -136.57   0.0020000
  -53.69   13.69 -117.15   0.0020000
 -103.83  147.44   68.25   0.0020000
  -54.68   41.06  170.57   0.0020000
   64.91   79.75 -154.74   0.0020000
  -92.08   41.05   38.17   0.0020000
  125.25  168.10 -113.96   0.0020000
  -57.04   68.62 -175.97   0.0020000
  124.59  103.59 -133.45   0.0020000
 -111.63   69.81  154.72   0.0020000
  158.61  160.79   92.39   0.0020000
  159.30  143.85  160.23   0.0020000
  -49.44   64.70   -4.67   0.0020000
  -18.88   27.57  141.22   0.0020000
  -61.34   20.24   70.39   0.0020000
  129.47  111.97    2.77   0.0020000
  -82.24  175.76   27.68   0.0020000
  -54.76   90.87 -120.26   0.0020000
  -55.30   86.79 -177.39   0.0020000
 -126.15   61.21 -178.39   0.0020000
  124.77   98.54 -178.59   0.0020000
 -110.63   94.59   87.15   0.0020000
  -40.56  130.85  110.92   0.0020000
  -58.01  102.38  113.66   0.0020000
  126.65   47.87  129.84   0.0020000
  133.89  138.48  145.28   0.0020000
 -166.69   30.69 -128.58   0.0020000
   60.58  112.39 -171.24   0.0020000
  -54.28   86.17   62.65   0.0020000
 -132.16   62.50   80.52   0.0020000
  -55.56   84.76 -166.32   0.0020000
  126.49   89.59   12.14   0.0020000
  -45.90  156.40   10.27   0.0020000
  111.52   90.64 -103.46   0.0020000
  -55.64   86.52  175.65   0.0020000
   63.53  145.47  177.34   0.0020000
  -53.71   15.71 -176.53   0.0020000
  -55.09   88.62 -112.89   0.0020000
  -58.17  131.98  110.82   0.0020000
  -53.79  108.29   18.04   0.0020000
   96.03   68.10  -13.12   0.0020000
  125.54   81.15   17.95   0.0020000
  -56.44   95.17   56.02   0.0020000
  -44.10   99.66  -86.13   0.0020000
   74.92  168.36   65.01   0.0020000
 -161.50   29.69   47.17   0.0020000
  -50.71  117.30   71.17   0.0020000
 -112.88   76.51   89.08   0.0020000
  -56.14  151.46   68.31   0.0020000
   64.15  111.19 -170.52   0.0020000
  -54.65   96.69 -123.38   0.0020000
  124.47  104.11  -57.79   0.0020000
   86.21   19.11   42.75   0.0020000
   65.72  104.54 -143.43   0.0020000
   45.18   36.86   81.10   0.0020000
  -49.01  159.46  -52.90   0.0020000
   86.40   99.33   30.67   0.0020000
  122.08  131.83  176.42   0.0020000
   64.34   85.11   12.18   0.0020000
  137.99  158.67  -44.86   0.0020000
    0.20   49.74 -131.71   0.0020000
  135.54  124.95   29.30   0.0020000
  120.57  129.52 -130.48   0.0020000
 -115.02   87.15   47.02   0.0020000
  -56.29  115.00  111.60   0.0020000
   69.92  101.12  -98.76   0.0020000
   92.60   14.22 -143.07   0.0020000
 -114.73   90.10  175.62   0.0020000
  -53.31  102.16   -7.70   0.0020000
 -141.05   45.84   84.33   0.0020000
  131.49  102.64   40.72   0.0020000
 -152.16   20.38  -79.46   0.0020000
  124.67   88.43  112.23   0.0020000
  -57.88   98.85   60.14   0.0020000
  124.71  107.80  172.57   0.0020000
  128.27  113.11  -61.23   0.0020000
  123.85   70.33 -170.50   0.0020000
  122.33  154.80   -6.38   0.0020000
  -50.81   90.30 -118.89   0.0020000
  121.08   85.91  127.36   0.0020000
  -71.04  169.34  -20.52   0.0020000
  -55.59   96.11  176.70   0.0020000
  108.75  154.21  -21.06   0.0020000
  110.32   42.93  140.17   0.0020000
 -170.49   46.70  -17.87   0.0020000
 -111.80   14.72  -58.78   0.0020000
  -56.35  126.00 -112.26   0.0020000
   67.01   77.77  -87.61   0.0020000
 -144.78  164.10 -154.20   0.0020000
  -55.71   67.23  -55.73   0.0020000
   27.92   22.17  -19.38   0.0020000
  -56.02   71.30   69.43   0.0020000
 -133.40   44.65  -44.05   0.0020000
  -53.18  134.51   94.60   0.0020000
  142.03  153.86  139.69   0.0020000
  125.27   31.16  165.20   0.0020000
 -124.93  130.88  -12.22   0.0020000
  -44.43   95.17  179.44   0.0020000
  -53.69   96.57  -53.28   0.0020000
   46.48   39.94 -101.07   0.0020000
  120.38  140.46  111.98   0.0020000
  119.94   92.87  116.31   0.0020000
  110.95  165.64  101.96   0.0020000
  124.98   90.88  -61.08   0.0020000
 -120.15   92.45  -78.96   0.0020000
  119.97   50.42  131.37   0.0020000
  -46.04   73.48   70.29   0.0020000
  135.32  146.71 -158.04   0.0020000
 -137.25  150.43  -85.16   0.0020000
  123.03   56.13 -105.53   0.0020000
   47.00   35.61   77.39   0.0020000
   42.57   53.99  -38.73   0.0020000
   31.55   17.03  -22.57   0.0020000
 -170.05   27.80  116.00   0.0020000
  126.98   93.40   14.60   0.0020000
  170.52   22.51   14.36   0.0020000
   10.58   54.16 -140.49   0.0020000
  131.35   92.91  -48.21   0.0020000
  124.95  121.69 -102.91   0.0020000
 -174.64  132.25 -171.02   0.0020000
 -156.60   53.49  154.85   0.0020000
 -113.98   78.66   56.07   0.0020000
  128.73  100.57   59.34   0.0020000
   98.47  160.68  -31.46   0.0020000
  -55.26   79.85 -112.99   0.0020000
  -53.68   87.62 -107.37   0.0020000
   96.09  158.73  -93.19   0.0020000
  -56.86   64.47 -119.53   0.0020000
  -64.37  107.62   41.70   0.0020000
  -55.73   83.51 -164.25   0.0020000
  121.85   46.92 -115.36   0.0020000
  -17.64  176.24 -147.38   0.0020000
   32.80  144.88  146.73   0.0020000
  105.58  100.72 -172.45   0.0020000
  -56.53  121.56 -177.20   0.0020000
  117.79  139.41 -132.72   0.0020000
  -54.93   73.91   65.86   0.0020000
 -114.39   99.16  160.15   0.0020000
  140.98  136.70  -14.35   0.0020000
  127.58  114.47  -64.80   0.0020000
 -117.48  164.21  113.13   0.0020000
  -53.71   67.59   10.57   0.0020000
  123.39  113.32   59.27   0.0020000
   57.38   67.36 -159.27   0.0020000
  120.07  141.28  171.67   0.0020000
 -134.06   28.38  -38.75   0.0020000
  124.62  104.90  -17.65   0.0020000
   -7.51    6.90 -102.67   0.0020000
   14.58   46.83  162.28   0.0020000
  154.45   32.21   20.90   0.0020000
 -122.47   43.69 -172.79   0.0020000
  131.23   80.04    9.48   0.0020000
   71.27  101.78   96.85   0.0020000
    3.66  103.36  -27.44   0.0020000
  -54.94   83.15   52.13   0.0020000
  -54.42  106.62  114.52   0.0020000
   11.47  173.25 -178.26   0.0020000
 -130.32  152.96  101.42   0.0020000
  143.25   15.59 -135.93   0.0020000
   67.15   92.65  -73.04   0.0020000
  -68.63  103.02  164.70   0.0020000
  115.18   38.34   75.85   0.0020000
  135.55   14.28   -7.19   0.0020000
   64.74   98.84   39.77   0.0020000
  114.83   33.07   15.62   0.0020000
  124.06  100.19 -171.64   0.0020000
  129.40   22.94  -66.76   0.0020000
  122.79  109.54 -130.29   0.0020000
 -130.11   46.70  -45.03   0.0020000
 -131.34   55.13  134.56   0.0020000
  125.43   83.63   64.66   0.0020000
  -63.48   66.86 -165.21   0.0020000
  -47.26   94.46  125.50   0.0020000
  126.99   79.98   61.23   0.0020000
  -54.13   99.87  -10.47   0.0020000
  -59.10  136.52   -5.82   0.0020000
    1.11   41.54  117.76   0.0020000
  -55.00  113.74   82.93   0.0020000
  164.91    8.50  -95.47   0.0020000
  -55.12   85.43  128.34   0.0020000
  -56.79   58.34    8.06   0.0020000
  -32.27  151.77  146.79   0.0020000
 -164.62  145.64  -49.12   0.0020000
  126.07   13.57  123.42   0.0020000
  -55.99  108.60 -127.69   0.0020000
   -1.35  112.55 -138.58   0.0020000
  154.64  120.68  -71.29   0.0020000
  -46.23  163.06   66.78   0.0020000
 -131.95  150.42  -19.55   0.0020000
  -71.65   64.70   20.39   0.0020000
 -156.99  157.18  -45.73   0.0020000
  129.04   37.17  -91.32   0.0020000
  -55.10   68.29  136.32   0.0020000
  -43.99   80.87   -4.48   0.0020000
  128.56  102.11 -117.83   0.0020000
  -28.41   31.24   25.08   0.0020000
  110.67   12.09 -101.48   0.0020000
  112.89   88.30 -173.14   0.0020000
 -140.86   30.97  148.04   0.0020000
 -114.45   79.79  173.89   0.0020000
   95.84  114.44  106.06   0.0020000
  123.69  165.97 -125.72   0.0020000
 -174.98  114.67   14.01   0.0020000
  137.19   66.77   91.76   0.0020000
  -13.59   44.13  108.44   0.0020000
  123.03  169.22  -66.48   0.0020000
  127.25   88.80  -50.04   0.0020000
  -58.74  113.76  -11.16   0.0020000
   97.24   66.62  -22.27   0.0020000
  -47.19  117.27   61.36   0.0020000
  -55.19  111.87   51.56   0.0020000
 -122.60   93.03  -74.84   0.0020000
TEXTURE AT STRAIN =    2.0000
   1.153   3.551   0.244  <-- length of average ellipsoid axes for phase
 -156.65   90.06   90.02  <-- Euler angles of average ellipsoid axes for phase
B       500
   49.71  143.74  -16.53   0.0020000
  137.58   18.61   60.14   0.0020000
  107.99   16.56   30.49   0.0020000
  126.79   89.13   58.59   0.0020000
  126.93   82.47    4.49   0.0020000
  -31.57    2.66 -128.97   0.0020000
  -52.67   82.10  -51.99   0.0020000
  146.08  170.62    6.86   0.0020000
  -54.02   74.49  129.02   0.0020000
 -126.36  161.38 -145.15   0.0020000
  -79.05  169.74  -38.01   0.0020000
    7.80  176.52  108.37   0.0020000
  -53.86   71.36   57.09   0.0020000
  -53.32  110.85  171.30   0.0020000
  -38.40  133.50  -37.10   0.0020000
 -114.70   80.60 -170.53   0.0020000
   72.65    5.64 -173.28   0.0020000
   29.14   46.72   31.11   0.0020000
   60.55   70.68 -157.64   0.0020000
 -141.42   13.38  160.25   0.0020000
  124.54  122.64  -44.97   0.0020000
  -56.25  160.18 -134.29   0.0020000
 -126.30    6.28   25.57   0.0020000
  113.20   17.70 -154.83   0.0020000
  126.95   88.45   60.52   0.0020000
   88.90  125.69  -40.96   0.0020000
  -55.19   88.51  -63.78   0.0020000
  -54.47   70.03 -170.69   0.0020000
 -109.16   98.51  -99.78   0.0020000
  -55.07  112.47  -69.03   0.0020000
  126.23   85.90   62.68   0.0020000
  -61.32   44.95  -44.03   0.0020000
  125.39  111.31  109.86   0.0020000
 -109.68   89.26  -99.67   0.0020000
  -58.91  128.51 -130.05   0.0020000
  -54.31   64.78 -110.59   0.0020000
  -61.18  154.47 -138.39   0.0020000
 -169.51   32.18 -172.94   0.0020000
  176.69  112.46  115.80   0.0020000
  -52.94   75.59   68.94   0.0020000
 -173.68  155.52   49.69   0.0020000
  122.83   69.49   74.96   0.0020000
  126.83   79.40 -173.93   0.0020000
  -62.29   47.12  133.22   0.0020000
  125.97   71.36 -111.29   0.0020000
  127.53   93.76 -125.70   0.0020000
 -142.16   24.56  -17.05   0.0020000
  126.96   84.10  123.58   0.0020000
  -56.74   60.00 -170.44   0.0020000
  -84.57   21.06  178.63   0.0020000
 -119.10   11.41 -102.03   0.0020000
  -53.99   95.03  172.62   0.0020000
  -53.43  113.72 -128.49   0.0020000
  114.18  168.84  -24.80   0.0020000
   25.82   36.17 -118.47   0.0020000
 -114.76  102.23  -22.88   0.0020000
   67.77   96.75  -83.62   0.0020000
  -62.65   46.38   68.53   0.0020000
 -118.56    2.60  -42.06   0.0020000
  -51.60   96.31  114.51   0.0020000
  110.38    5.04  -31.06   0.0020000
  -53.40  104.16  171.13   0.0020000
 -143.78   53.36  -94.56   0.0020000
  113.39  174.17  -25.82   0.0020000
  -53.60   84.62 -115.85   0.0020000
  126.26   75.70 -112.87   0.0020000
  -65.37  159.98 -143.45   0.0020000
  -56.18  126.45 -131.93   0.0020000
  146.22   18.42  111.14   0.0020000
  127.52   60.83 -126.96   0.0020000
  -52.59   79.92   10.90   0.0020000
  -52.93   98.68  175.00   0.0020000
   61.50    7.75  137.75   0.0020000
 -113.92   95.47  -49.19   0.0020000
  -14.00  171.76   86.77   0.0020000
 -103.19  174.86   57.51   0.0020000
  -68.67  155.39 -149.24   0.0020000
  118.29   46.13   73.23   0.0020000
  126.36   75.56   67.87   0.0020000
  -66.24  157.45   35.93   0.0020000
  126.32   74.27 -172.40   0.0020000
   15.68    7.27 -176.26   0.0020000
 -103.09  167.86  118.07   0.0020000
  -53.78  100.09  173.82   0.0020000
  -13.96    1.25   33.37   0.0020000
  126.73   79.01 -173.82   0.0020000
  127.17   85.38  123.61   0.0020000
   60.57   82.88   99.37   0.0020000
  -53.53  110.96   51.20   0.0020000
  -52.72   80.58  -53.85   0.0020000
  109.40   18.53  -31.00   0.0020000
   57.54   11.16   21.43   0.0020000
   62.99   71.20 -174.72   0.0020000
  -55.88  146.87 -130.69   0.0020000
  -53.13   94.66   -2.77   0.0020000
  116.49  161.62 -141.86   0.0020000
   63.97  159.99  162.78   0.0020000
   66.81   85.89  -46.43   0.0020000
   60.59  107.57  -77.75   0.0020000
  127.44   85.13   62.77   0.0020000
   70.36   85.39  -35.41   0.0020000
  127.24   82.69   66.04   0.0020000
  125.51   69.23    8.53   0.0020000
  117.03  134.52  105.38   0.0020000
  -53.20   97.36   77.66   0.0020000
  126.46   90.15  -60.46   0.0020000
   -6.78    9.39   26.10   0.0020000
  -55.50   65.11  129.29   0.0020000
  -53.78  110.33 -129.12   0.0020000
  -52.98   87.61 -117.89   0.0020000
  -68.64   23.42  -93.42   0.0020000
   17.52  141.76   62.25   0.0020000
 -141.44  136.53   94.47   0.0020000
  125.67   62.59 -122.55   0.0020000
  119.30  120.02  -73.71   0.0020000
  122.89  120.54   -9.79   0.0020000
   70.65   77.28   26.47   0.0020000
 -100.87   19.00  -59.67   0.0020000
  125.91  110.43   -4.78   0.0020000
  -46.19  158.18   -2.93   0.0020000
  -27.92    7.40  -72.75   0.0020000
  -52.67   98.05  103.30   0.0020000
    0.18   27.93 -164.31   0.0020000
 -140.59   50.06  148.22   0.0020000
  121.54  164.67   42.88   0.0020000
   11.87  160.85   -6.22   0.0020000
   72.04   85.06  -85.61   0.0020000
  119.45  131.26  -74.16   0.0020000
  125.29   62.59 -110.92   0.0020000
  -75.46  169.28  -94.46   0.0020000
  -52.73   82.94    4.90   0.0020000
  174.52   99.14  137.48   0.0020000
  -52.78   94.30 -112.56   0.0020000
 -133.49   23.52  -85.31   0.0020000
  122.65  124.37  170.15   0.0020000
 -132.93  132.66  -76.65   0.0020000
 -140.30   39.87  143.59   0.0020000
  126.88   82.80  130.09   0.0020000
 -109.18   90.87   20.84   0.0020000
  -56.13  124.91  168.17   0.0020000
 -103.80  166.50  117.42   0.0020000
   87.51  158.93  119.28   0.0020000
  125.32   74.04  121.69   0.0020000
   15.04   10.57   64.15   0.0020000
  125.88  102.99   58.79   0.0020000
  126.74   99.47   53.23   0.0020000
  125.94   72.03  128.07   0.0020000
   67.93   80.74  113.15   0.0020000
  -52.83   93.39  -96.00   0.0020000
   69.28   89.78  137.53   0.0020000
  123.41  121.86   48.77   0.0020000
  -54.10  101.75  -67.02   0.0020000
   65.26   78.32   27.11   0.0020000
 -178.85   55.22   63.81   0.0020000
 -111.96   95.10 -111.86   0.0020000
   87.11  164.66 -171.58   0.0020000
  176.39  158.81  -80.82   0.0020000
  -49.96  165.78   -8.79   0.0020000
  126.86   91.01   59.65   0.0020000
  126.68   90.14 -127.49   0.0020000
  -54.54  118.30   52.92   0.0020000
  121.05   52.27 -170.48   0.0020000
 -111.44   98.09   31.15   0.0020000
  124.88  140.80 -135.22   0.0020000
   66.82   84.62   78.64   0.0020000
  -54.35  121.85   35.73   0.0020000
  -78.89   16.32   97.63   0.0020000
   54.22    4.94  145.20   0.0020000
   67.26   84.93  175.78   0.0020000
  123.44   65.40  129.42   0.0020000
  -53.08   96.80 -123.91   0.0020000
  -90.11  169.61   10.95   0.0020000
  117.85   13.27 -158.94   0.0020000
 -107.94   90.24  -29.46   0.0020000
 -156.23  156.86    5.03   0.0020000
  126.64   91.90  -60.08   0.0020000
  126.64   99.01  114.11   0.0020000
  125.07  116.37  170.30   0.0020000
 -173.36  115.61  -86.40   0.0020000
  120.70   64.20 -108.99   0.0020000
  -59.29   54.21  130.98   0.0020000
  122.71   89.68 -179.57   0.0020000
  125.22  126.41  111.06   0.0020000
 -160.16   43.26  -83.88   0.0020000
  125.18  105.42  110.45   0.0020000
  122.74   56.49    8.86   0.0020000
  126.20   72.53 -170.69   0.0020000
  -52.82  100.81   57.91   0.0020000
  127.24  101.24 -133.48   0.0020000
  126.97   86.29  -58.14   0.0020000
  126.05   65.19  -55.29   0.0020000
  125.23   66.74  -51.68   0.0020000
  -82.09  154.83  -35.63   0.0020000
 -108.56   95.23   83.09   0.0020000
  -53.73   86.79  130.02   0.0020000
   66.35   95.91  -21.07   0.0020000
   96.75  169.74 -162.22   0.0020000
  -23.04  174.45   77.56   0.0020000
   -3.00  165.49 -141.52   0.0020000
 -162.93   29.30    1.68   0.0020000
   47.27  166.35 -151.48   0.0020000
  -56.44  122.51   48.67   0.0020000
  -52.66  101.31 -125.73   0.0020000
   71.54   88.51  -96.68   0.0020000
  -53.05   96.93   -4.08   0.0020000
  -51.92   82.99  -59.96   0.0020000
  101.26  160.95   20.76   0.0020000
 -114.05   99.19  -23.34   0.0020000
   20.14    9.71   59.07   0.0020000
 -118.52  156.89  -36.47   0.0020000
 -135.95   35.10  -90.69   0.0020000
  125.96   19.25   12.03   0.0020000
  -95.83  167.25 -114.61   0.0020000
  -52.43   88.41 -179.23   0.0020000
  -44.59  176.33  175.99   0.0020000
   67.17   94.15  -56.26   0.0020000
  -52.92  105.50 -127.84   0.0020000
  -60.62   13.37 -160.52   0.0020000
  -52.85   77.94 -172.10   0.0020000
  126.71   74.77 -173.97   0.0020000
   26.54  166.78  -52.35   0.0020000
  127.52   84.02    5.15   0.0020000
  126.50   78.63 -116.59   0.0020000
  -60.26  131.72  -71.06   0.0020000
  -53.07   87.85 -178.02   0.0020000
  126.83   80.10 -172.72   0.0020000
  -53.55  103.55  172.79   0.0020000
  -53.13   81.94    5.90   0.0020000
  162.32   16.69 -144.48   0.0020000
  127.25   87.60 -102.81   0.0020000
  -58.58   78.84 -108.98   0.0020000
  -53.00   83.94    4.73   0.0020000
  103.09  174.05   83.80   0.0020000
  126.04   73.19   68.16   0.0020000
  110.64  159.83  152.50   0.0020000
  127.54   96.32  114.56   0.0020000
  126.91   93.83 -122.68   0.0020000
 -109.53   88.27  156.46   0.0020000
   66.68   87.13  -97.49   0.0020000
  128.37   82.58 -175.41   0.0020000
  -52.61   84.59    3.18   0.0020000
  -45.54   30.58  -61.97   0.0020000
  -66.21  153.24   36.40   0.0020000
 -108.24  170.52  -67.28   0.0020000
  -53.16   81.97 -111.57   0.0020000
  -59.95  113.33   48.69   0.0020000
 -113.99   99.63 -150.63   0.0020000
   48.23  160.22 -150.49   0.0020000
 -165.67  122.14   25.44   0.0020000
 -113.33  105.05  167.29   0.0020000
 -107.81   99.29   88.76   0.0020000
  125.81   75.64 -111.45   0.0020000
 -116.21   77.62 -157.25   0.0020000
  -53.80   75.83 -171.53   0.0020000
  -58.37   56.52  132.99   0.0020000
  112.19   26.71   77.51   0.0020000
 -145.74  159.65 -164.43   0.0020000
  -52.89  105.47   51.00   0.0020000
  -60.73  137.92  -74.95   0.0020000
  126.15   99.01 -127.25   0.0020000
  165.84   46.60 -162.27   0.0020000
 -111.18   77.44  -71.96   0.0020000
  -67.82  151.86   39.42   0.0020000
  118.10   45.09  133.23   0.0020000
 -172.03  166.23  169.07   0.0020000
  -59.05   54.27  -48.25   0.0020000
  -74.96  163.74   26.44   0.0020000
 -146.76  171.20   13.97   0.0020000
  127.73   88.63  -59.39   0.0020000
  -53.98   98.65 -125.68   0.0020000
  -53.38   98.85  114.69   0.0020000
  120.48  156.28 -137.07   0.0020000
 -174.20  136.04  -65.96   0.0020000
 -115.81  103.30  111.00   0.0020000
 -153.59  138.04   86.28   0.0020000
  -57.15  120.93  -71.45   0.0020000
 -175.98  151.16  -12.53   0.0020000
  126.36  103.41   -6.61   0.0020000
   89.61  164.76 -169.09   0.0020000
  -53.41  129.34   37.03   0.0020000
 -170.90  150.45  -67.19   0.0020000
  126.66   78.09  -53.23   0.0020000
 -166.67  159.19 -124.74   0.0020000
   71.21   77.56   88.59   0.0020000
  175.74  172.20 -143.59   0.0020000
 -150.56  132.30  -91.52   0.0020000
  -39.26  140.29   75.70   0.0020000
  126.97   85.45   62.47   0.0020000
  -53.64  105.29 -129.71   0.0020000
  -70.79    9.45 -150.15   0.0020000
 -114.91  158.76  100.02   0.0020000
  -62.71   42.12  137.85   0.0020000
   69.71   82.99 -152.72   0.0020000
 -103.79   27.21   46.12   0.0020000
  106.48  171.68  -92.38   0.0020000
  -54.46   73.86 -171.02   0.0020000
  126.59  101.72 -128.82   0.0020000
 -110.05   72.55  149.94   0.0020000
  137.10  167.33  118.14   0.0020000
  126.72  147.01  172.44   0.0020000
  -53.64   72.04    7.16   0.0020000
  -47.47   20.97  124.83   0.0020000
  -75.55   14.32   34.24   0.0020000
  126.73  105.11   -7.37   0.0020000
  -88.09  177.01   72.53   0.0020000
  -53.01   90.86 -120.00   0.0020000
  -53.12   87.46 -177.65   0.0020000
 -144.98   49.78 -156.50   0.0020000
  126.69   95.74  176.66   0.0020000
 -107.89   94.93   86.82   0.0020000
  -54.89  122.77  111.35   0.0020000
  -54.23  100.24  113.61   0.0020000
  122.37   53.93  131.25   0.0020000
  120.49  134.93  166.17   0.0020000
  169.19   19.64 -152.12   0.0020000
   54.86  124.92  173.18   0.0020000
  -52.92   87.15   62.51   0.0020000
 -165.63   60.82   94.14   0.0020000
  -53.24   84.51 -171.90   0.0020000
  127.16   88.63    4.95   0.0020000
  -62.25  162.52   39.37   0.0020000
  117.51   93.16 -109.47   0.0020000
  -53.29   88.39 -179.61   0.0020000
   51.22  156.84 -149.56   0.0020000
  -70.34   10.92  149.30   0.0020000
  -53.10   88.03 -116.95   0.0020000
  -59.07  127.91  108.69   0.0020000
  -54.63  104.50    3.26   0.0020000
   90.09   59.81  -21.25   0.0020000
  127.04   81.75   11.24   0.0020000
  -53.39   94.55   57.25   0.0020000
  -52.01   98.80  -73.99   0.0020000
   64.58  171.77  105.45   0.0020000
  178.77   18.67   18.94   0.0020000
  -54.45  111.09   56.48   0.0020000
 -109.12   78.55   90.40   0.0020000
  -68.28  157.83   93.99   0.0020000
   56.38  124.11  172.86   0.0020000
  -53.02   95.60 -123.03   0.0020000
  126.37   99.62  -64.89   0.0020000
   77.27   12.97    1.54   0.0020000
   69.83  100.67 -146.62   0.0020000
   33.66   26.55   49.65   0.0020000
  -64.49  165.27  -23.23   0.0020000
   73.40   97.55   29.67   0.0020000
  120.25  126.75  169.35   0.0020000
   67.77   89.13   15.52   0.0020000
  119.61  164.89  -19.12   0.0020000
  -32.80   38.61 -139.70   0.0020000
  125.25  117.20   49.20   0.0020000
  121.45  125.50 -130.16   0.0020000
 -111.73   83.32   47.20   0.0020000
  -54.33  110.25  111.85   0.0020000
   71.13  102.20  -97.45   0.0020000
   83.10    9.95  175.87   0.0020000
 -112.50   88.33  175.85   0.0020000
  -52.66   99.33   -5.79   0.0020000
 -157.14   36.89   77.52   0.0020000
  127.57  100.41   51.01   0.0020000
 -163.93   12.68 -117.10   0.0020000
  126.79   89.90  117.62   0.0020000
  -54.00   96.62   56.60   0.0020000
  126.33  103.84  171.79   0.0020000
  126.76  105.98  -68.52   0.0020000
  126.14   73.98 -171.79   0.0020000
  109.17  161.62   30.77   0.0020000
  -52.33   90.31 -119.54   0.0020000
  125.58   85.92  123.42   0.0020000
  -82.14  172.49   18.62   0.0020000
  -53.20   95.07  177.16   0.0020000
   99.09  162.10   19.78   0.0020000
  108.95   34.33  144.36   0.0020000
  171.55   32.69  -39.56   0.0020000
 -121.32   10.24  -99.70   0.0020000
  -57.01  118.71 -123.44   0.0020000
   70.94   79.03  -86.89   0.0020000
 -152.21  170.16 -111.44   0.0020000
  -54.07   73.17  -51.09   0.0020000
   17.42   13.69  -58.44   0.0020000
  -53.90   75.08   68.86   0.0020000
 -148.78   34.13  -38.25   0.0020000
  -59.29  130.16  107.01   0.0020000
  121.90  160.14  163.80   0.0020000
  113.87   25.19  143.48   0.0020000
 -147.29  137.82  -32.34   0.0020000
  -52.03   93.20  178.61   0.0020000
  -52.82   94.01  -60.45   0.0020000
   32.20   29.27 -118.19   0.0020000
  114.28  143.42  103.37   0.0020000
  124.84   92.52  117.17   0.0020000
   96.25  169.90  137.23   0.0020000
  126.94   90.59  -61.00   0.0020000
 -113.96   88.91  -80.52   0.0020000
  121.68   53.30  129.59   0.0020000
  -52.47   78.66   67.05   0.0020000
  118.84  150.31 -137.77   0.0020000
 -146.48  160.04  -45.18   0.0020000
  124.31   62.55 -109.59   0.0020000
   36.62   25.98   41.37   0.0020000
   15.53   50.08  -23.72   0.0020000
   23.45   10.53  -64.29   0.0020000
  164.34   17.94   93.12   0.0020000
  126.81   91.92    5.55   0.0020000
  144.42   15.37   -6.00   0.0020000
    0.16   44.21 -168.54   0.0020000
  127.36   91.48  -57.56   0.0020000
  123.48  116.59  -75.67   0.0020000
  164.88  144.90 -148.05   0.0020000
 -168.64   46.92  159.82   0.0020000
 -115.46   76.72   67.14   0.0020000
  127.45   96.92   55.25   0.0020000
   86.24  166.50    7.54   0.0020000
  -53.22   81.81 -113.93   0.0020000
  -52.74   87.12 -114.03   0.0020000
   84.62  165.30  -54.02   0.0020000
  -54.87   71.17 -111.46   0.0020000
  -58.19  107.02   48.90   0.0020000
  -53.30   83.48 -170.05   0.0020000
  120.35   50.96 -109.07   0.0020000
  -28.50  177.45 -107.99   0.0020000
   22.60  155.52 -176.46   0.0020000
  109.04  104.85  179.89   0.0020000
  -55.41  113.99  172.72   0.0020000
  113.58  143.25 -138.87   0.0020000
  -53.43   77.84   67.54   0.0020000
 -110.64   94.04  157.02   0.0020000
  122.65  131.22  -10.81   0.0020000
  126.64  107.17  -69.28   0.0020000
 -124.36  169.53  156.60   0.0020000
  -53.36   73.62    9.66   0.0020000
  125.45  107.01   51.65   0.0020000
   59.30   71.41 -155.39   0.0020000
  113.89  145.07  162.89   0.0020000
 -143.65   19.04  -77.94   0.0020000
  126.52  103.16  -10.61   0.0020000
  -23.51    3.93 -137.04   0.0020000
    3.30   35.64  132.28   0.0020000
  125.91   28.50    9.35   0.0020000
 -139.59   32.32 -157.76   0.0020000
  127.68   82.65    4.89   0.0020000
   72.03   97.13   93.65   0.0020000
   -5.39  104.99  -23.35   0.0020000
  -53.30   86.05   59.72   0.0020000
  -53.14  102.54  113.27   0.0020000
    1.28  175.67 -138.16   0.0020000
 -139.32  161.93  142.07   0.0020000
  126.01   10.70 -166.93   0.0020000
   68.88   87.96  -75.99   0.0020000
  -61.85  102.17  168.40   0.0020000
  111.32   30.80   82.55   0.0020000
  119.70    9.91  -40.62   0.0020000
   68.93   94.52   36.31   0.0020000
  109.31   24.55   22.30   0.0020000
  126.12   96.69  179.85   0.0020000
  114.48   16.82  -95.92   0.0020000
  125.66  106.13 -129.20   0.0020000
 -148.96   37.98  -30.16   0.0020000
 -156.84   47.32  156.46   0.0020000
  127.01   84.66   63.17   0.0020000
  -57.78   69.03 -168.82   0.0020000
  -52.25   92.78  119.66   0.0020000
  127.39   82.89   63.78   0.0020000
  -52.87   98.53   -6.13   0.0020000
  -62.56  135.82  -13.16   0.0020000
  -31.85   30.88  104.40   0.0020000
  -54.61  111.07  103.23   0.0020000
  150.68    5.47 -131.25   0.0020000
  -53.10   85.57  124.56   0.0020000
  -55.51   64.69    9.33   0.0020000
  -55.16  157.12  167.51   0.0020000
  178.13  157.13  -18.79   0.0020000
  111.78    9.53   87.29   0.0020000
  -53.81  105.12 -127.69   0.0020000
  -45.18  120.08 -137.94   0.0020000
  127.40  113.15  -66.46   0.0020000
  -62.18  168.12   98.85   0.0020000
 -141.55  160.20   19.67   0.0020000
  -65.37   63.28   15.61   0.0020000
 -169.18  165.88   -8.02   0.0020000
  118.05   35.30 -102.64   0.0020000
  -53.73   72.79  130.30   0.0020000
  -52.18   84.70    2.72   0.0020000
  127.28   97.95 -124.78   0.0020000
  -55.19   26.90   11.42   0.0020000
   98.94    8.54 -139.80   0.0020000
  119.24   88.67 -177.61   0.0020000
 -151.01   20.92  109.47   0.0020000
 -115.14   75.83 -176.00   0.0020000
   88.92  123.97   93.69   0.0020000
  107.03  170.26  -92.01   0.0020000
  177.47  117.61    9.23   0.0020000
  126.83   70.30   75.72   0.0020000
  -52.67   42.58  119.55   0.0020000
  105.88  172.58  -33.35   0.0020000
  127.37   88.17  -56.73   0.0020000
  -55.11  110.42   -8.78   0.0020000
   93.69   58.32  -26.32   0.0020000
  -53.02  109.19   52.53   0.0020000
  -53.62  106.78   51.55   0.0020000
 -116.24   89.68  -77.36   0.0020000
