TEXTURE AT STRAIN =    0.2000
   1.039   1.172   0.821  <-- length of average ellipsoid axes for phase
   90.00   90.13   89.87  <-- Euler angles of average ellipsoid axes for phase
B      1944
 -116.42   89.92  -65.61   0.0002897
   35.72    9.13  -30.01   0.0002948
  -90.99   92.44  -66.99   0.0002988
   43.18    7.67   12.01   0.0003027
   49.21    8.73    8.79   0.0002926
  -59.60   96.74  -66.78   0.0002868
 -115.71   85.60  -72.86   0.0008200
   21.99   16.70  -15.49   0.0008031
  -92.00   91.22  -75.59   0.0008091
   24.51   15.02   31.19   0.0008152
   28.66   15.52   30.03   0.0007836
  -60.49  100.15  -74.58   0.0007982
 -114.18   81.20  -81.32   0.0010277
   16.73   25.63   -9.09   0.0011066
  -92.80   89.72  -85.13   0.0010815
   18.32   23.97   37.87   0.0010887
   20.36   24.08   39.21   0.0010928
  -62.04  103.94  -83.41   0.0010036
 -111.89   77.08  -90.47   0.0009159
   14.33   35.05   -5.21   0.0008998
  -93.22   88.21  -94.87   0.0009410
  -74.83   99.61  -94.15   0.0009508
   16.39   33.29   44.24   0.0009064
  -64.35  107.74  -92.75   0.0009199
 -108.94   73.42 -100.24   0.0005697
   13.12   44.77   -2.22   0.0005513
  -93.31   86.62 -104.70   0.0005712
  -79.05   99.08 -104.56   0.0005717
   14.22   42.88   47.64   0.0005550
  -67.39  111.17 -102.59   0.0005698
 -105.41   70.22 -110.51   0.0002754
   12.55   54.67    0.43   0.0002823
  -93.08   84.95 -114.56   0.0002919
  -82.33   98.23 -114.89   0.0002861
   12.97   52.70   50.28   0.0002739
  -71.35  114.25 -112.95   0.0002721
 -101.40   67.62 -121.21   0.0001311
  -98.40   72.31 -122.08   0.0001436
  -92.45   83.33 -124.47   0.0001331
  -84.99   97.24 -125.12   0.0001306
  -77.89  111.32 -124.03   0.0001304
  -75.96  116.61 -123.79   0.0001227
  -96.98   65.65 -132.13   0.0000733
  -94.77   71.41 -132.77   0.0000899
  -91.36   81.98 -134.46   0.0000859
  -86.94   96.26 -135.27   0.0000875
  -82.56  111.08 -134.99   0.0000848
  -81.25  118.16 -135.05   0.0000659
  -92.35   64.39 -142.95   0.0000682
  -91.12   70.77 -143.39   0.0000808
  -89.90   81.02 -144.51   0.0000872
  -88.66   95.11 -145.36   0.0000937
  -86.99  110.26 -145.85   0.0000782
  -86.89  118.75 -146.54   0.0000580
   42.33    9.82  -36.57   0.0002940
  -90.93   90.90  -66.75   0.0002990
   50.79    8.44    4.38   0.0002988
   55.26    9.58    2.75   0.0002997
  -59.56   95.37  -67.33   0.0002938
   48.96   10.74   14.21   0.0002902
   30.59   17.50  -23.90   0.0008505
  -91.79   87.84  -75.01   0.0008274
   34.13   15.87   21.56   0.0008173
   37.14   16.44   21.69   0.0008139
  -60.17   97.17  -75.70   0.0007959
   35.30   18.00   28.77   0.0008249
   25.64   26.38  -17.56   0.0010759
  -92.33   84.21  -84.10   0.0011586
   28.03   24.90   28.03   0.0011045
   28.76   24.92   31.22   0.0010994
  -61.07   99.35  -84.95   0.0011123
  -57.06  101.24  -84.96   0.0010395
   23.17   35.66  -13.30   0.0009639
  -92.48   80.26  -93.30   0.0009526
  -73.65   92.37  -94.79   0.0009848
   24.27   34.06   37.13   0.0009637
  -62.23  101.58  -94.49   0.0009193
  -58.30  104.53  -94.35   0.0009465
   21.84   45.22   -9.77   0.0006010
   22.10   46.66   -2.99   0.0005925
  -77.18   89.96 -104.82   0.0006079
   21.66   43.64   41.34   0.0005889
  -63.74  103.97 -104.24   0.0005667
  -60.17  107.96 -104.01   0.0005893
   21.21   54.96   -6.47   0.0002940
   20.46   55.97   -0.20   0.0003033
  -78.76   87.55 -114.81   0.0003053
   20.43   53.49   44.02   0.0002969
  -65.43  106.47 -114.12   0.0002812
  -62.81  111.06 -114.02   0.0002847
   21.05   64.78   -3.20   0.0001357
   19.96   65.69    2.50   0.0001468
  -79.17   85.34 -124.76   0.0001380
   20.51   63.49   44.60   0.0001335
   20.77   63.21   49.63   0.0001314
  -66.25  113.82 -124.39   0.0001238
  -86.28   64.17 -131.91   0.0000673
   19.97   75.48    5.27   0.0000800
  -78.80   82.99 -134.67   0.0000764
  -74.12   99.13 -135.00   0.0000793
   19.76   73.17   53.14   0.0000761
  -70.35  116.08 -135.10   0.0000595
  -81.36   64.05 -143.45   0.0000559
   20.37   85.20    8.14   0.0000650
  -77.70   80.23 -144.65   0.0000685
  -76.28   96.40 -145.19   0.0000718
   19.70   82.98   55.56   0.0000627
  -75.17  117.91 -146.15   0.0000489
  -90.89   89.45  -66.31   0.0002975
   57.40    9.12   -2.27   0.0002989
   60.65   10.29   -2.65   0.0002964
  -59.51   93.99  -67.65   0.0002996
   54.01   11.40    9.20   0.0002978
   48.33   10.37   17.46   0.0002975
  -91.79   84.75  -73.96   0.0008744
   42.24   16.59   13.37   0.0008423
   44.41   17.16   14.50   0.0008227
  -59.79   94.11  -76.33   0.0008227
   42.24   18.69   21.96   0.0008248
   38.13   18.02   28.67   0.0008669
  -92.85   79.13  -82.17   0.0011249
   36.20   25.68   19.42   0.0011918
   35.97   25.46   24.30   0.0011240
   37.78   26.26   24.90   0.0011171
   36.31   27.02   29.32   0.0011606
   33.37   26.68   34.95   0.0011064
   31.31   37.02  -13.64   0.0010214
   34.21   35.78   19.16   0.0009898
   31.06   34.49   30.89   0.0009964
   33.47   35.01   31.00   0.0009709
   32.90   35.75   34.61   0.0009539
   30.78   35.72   39.55   0.0010030
   28.35   45.60  -10.18   0.0006313
  -75.26   81.52 -103.98   0.0006089
   28.43   44.10   34.95   0.0006049
   30.36   44.26   36.38   0.0005853
   30.68   44.81   39.14   0.0005771
   29.26   45.11   43.62   0.0006148
   27.16   54.99   -6.96   0.0003055
   29.93   56.50    4.46   0.0003067
   28.00   54.18   34.91   0.0003038
   27.67   53.95   41.75   0.0002941
   29.11   54.19   43.45   0.0002846
   28.40   54.74   47.60   0.0002942
   26.76   64.78   -3.63   0.0001431
   27.21   65.64    3.92   0.0001529
   29.15   64.89   28.47   0.0001437
   26.42   64.01   45.08   0.0001407
   27.79   63.91   47.89   0.0001422
   27.88   64.41   51.52   0.0001328
   26.90   74.70   -0.09   0.0000749
   26.28   75.23    5.74   0.0000898
   28.71   75.71   18.69   0.0000886
   26.83   74.11   44.66   0.0000976
   26.33   74.06   52.69   0.0000886
   27.53   74.06   55.44   0.0000705
   27.39   84.47    3.69   0.0000541
   26.50   85.13    8.52   0.0000707
   26.87   85.62   15.98   0.0000620
   28.49   84.37   39.07   0.0000685
   26.21   84.11   55.24   0.0000682
   27.12   83.87   59.54   0.0000463
   63.47    9.70   -8.40   0.0002964
   65.76   10.89   -7.77   0.0002978
  -59.46   92.64  -67.74   0.0002993
   58.84   11.91    4.37   0.0003038
   54.02   10.78   11.77   0.0003052
  -90.84   88.18   -5.68   0.0003033
   49.64   17.12    5.83   0.0008877
   51.28   17.68    7.64   0.0008545
   51.54   18.63    9.88   0.0008448
   48.82   19.11   15.42   0.0008514
   45.32   18.28   21.50   0.0008689
  -91.91   82.10  -12.48   0.0009020
   43.71   26.14   11.26   0.0011642
   43.00   25.74   17.43   0.0012196
   44.69   26.55   18.14   0.0011582
   43.32   27.15   22.42   0.0011735
   40.91   26.62   27.49   0.0012376
   43.02   28.46   34.87   0.0011719
   41.59   36.22    8.84   0.0010585
   38.01   34.62   24.14   0.0010092
   40.09   35.11   24.79   0.0010078
   39.84   35.61   27.96   0.0010157
   38.36   35.44   32.25   0.0010131
   38.10   35.96   38.88   0.0010700
   38.70   46.15   -0.92   0.0006350
   36.07   44.29   26.37   0.0005992
   36.60   44.36   30.98   0.0005883
   37.33   44.64   33.17   0.0005860
   36.72   44.73   36.84   0.0005937
   35.81   44.52   42.29   0.0006324
   35.42   54.79   -4.77   0.0002891
   35.96   54.48   22.35   0.0002814
   34.73   54.26   35.09   0.0002783
   35.45   54.35   38.43   0.0002814
   35.55   54.43   41.65   0.0002795
   35.07   54.32   46.12   0.0002839
   34.44   64.40   -3.62   0.0001322
   35.40   65.01   10.89   0.0001393
   34.69   64.39   33.85   0.0001366
   34.30   64.55   43.06   0.0001392
   34.72   64.54   46.63   0.0001388
   34.68   64.50   50.46   0.0001268
   34.34   74.72   -0.06   0.0000772
   34.20   74.73    7.28   0.0000896
   35.00   74.90   25.52   0.0000947
   34.30   74.68   43.23   0.0001070
   34.20   74.88   51.40   0.0000938
   34.43   74.80   55.34   0.0000723
   34.38   85.04    4.33   0.0000526
   34.20   85.01    9.50   0.0000642
   34.19   85.12   18.04   0.0000570
   34.76   84.95   38.38   0.0000643
   34.18   85.05   53.16   0.0000630
   34.25   85.16   60.29   0.0000449
   70.75   11.37  -12.82   0.0002952
  -59.41   91.35  -67.61   0.0003006
   63.62   12.27   -0.43   0.0003052
   59.60   11.07    6.16   0.0003102
  -90.81   87.01   -4.89   0.0003113
   69.27   10.17   45.72   0.0003037
   58.14   18.03    0.72   0.0009015
   58.06   18.96    3.30   0.0008761
   55.39   19.31    8.78   0.0008867
   52.54   18.34   14.20   0.0008972
  -92.13   79.81  -10.59   0.0009037
   56.82   17.46   58.46   0.0009241
   50.34   25.81   10.05   0.0012003
   51.71   26.57   11.10   0.0012664
   50.53   26.99   15.13   0.0012318
   48.76   26.35   19.57   0.0012516
   50.27   27.92   27.54   0.0013059
   51.04   26.23   63.27   0.0012210
   46.02   34.61   15.83   0.0010853
   47.14   34.95   17.92   0.0010449
   47.17   35.20   20.68   0.0010651
   46.54   35.01   24.16   0.0010872
   46.13   34.90   30.67   0.0010703
   48.64   35.89   59.44   0.0011060
   45.34   44.46   15.03   0.0006204
   45.07   44.47   22.55   0.0005829
   45.22   44.57   25.77   0.0005857
   45.40   44.57   28.77   0.0005958
   45.38   44.42   33.80   0.0005975
   45.63   44.90   50.18   0.0006269
   45.06   54.62    8.40   0.0002478
   44.88   54.52   22.63   0.0002441
   44.79   54.62   29.45   0.0002490
   44.97   54.66   33.36   0.0002573
   45.05   54.55   37.99   0.0002476
   44.86   54.53   46.95   0.0002486
   44.62   64.80    0.50   0.0001035
   44.81   64.72   19.00   0.0001139
   44.63   64.70   30.66   0.0001170
   44.63   64.83   37.83   0.0001172
   44.76   64.79   42.70   0.0001095
   44.72   64.68   49.25   0.0001005
   44.53   74.90    0.73   0.0000640
   44.52   75.02   11.77   0.0000757
   44.63   74.91   27.62   0.0000838
   44.51   74.90   39.48   0.0000912
   44.52   75.03   47.54   0.0000797
   44.59   74.97   53.42   0.0000609
   44.51   85.16    4.38   0.0000397
   44.46   85.09   11.56   0.0000438
   44.46   85.20   21.52   0.0000453
   44.53   85.12   36.51   0.0000460
   44.45   85.08   49.21   0.0000442
   44.47   85.23   58.21   0.0000358
  -59.38   90.06  -67.30   0.0002979
   68.41   12.52   -5.28   0.0003059
   65.18   11.26    0.54   0.0003133
  -90.72   86.18   -3.95   0.0003160
   74.96   10.55   39.94   0.0003104
   75.75   11.76   42.11   0.0003027
   64.73   19.15   -3.51   0.0009245
   62.16   19.34    1.85   0.0009171
   60.00   18.26    6.59   0.0009399
  -92.40   77.91   -8.37   0.0009301
   64.07   17.63   50.99   0.0009249
   65.17   18.26   53.52   0.0009455
   59.17   26.41    3.44   0.0012552
   58.24   26.64    7.12   0.0013516
   57.18   25.98   10.91   0.0013208
   58.28   27.41   20.02   0.0013213
   58.56   26.01   55.28   0.0013727
   58.26   25.76   61.86   0.0012775
   55.65   34.88    9.12   0.0011514
   55.77   34.96   11.84   0.0011231
   55.93   34.93   14.77   0.0011386
   55.77   34.80   21.99   0.0011472
   56.32   35.19   51.22   0.0011263
   55.65   34.83   65.23   0.0011510
   55.25   44.78   11.26   0.0006241
   55.33   44.89   15.23   0.0006001
   55.49   44.90   18.90   0.0006006
   55.47   44.77   25.17   0.0005957
   55.30   44.89   41.96   0.0005967
   55.47   44.82   62.89   0.0006244
   55.06   54.79   10.06   0.0002189
   54.87   54.86   18.34   0.0002191
   54.99   54.92   23.40   0.0002260
   55.00   54.83   29.44   0.0002227
   54.82   54.88   39.41   0.0002083
   55.10   54.97   57.27   0.0002143
   54.59   65.20    6.38   0.0000798
   54.64   64.79   17.88   0.0000860
   54.41   64.87   26.85   0.0000907
   54.36   64.96   33.89   0.0000888
   54.35   64.98   42.04   0.0000772
   54.29   65.23   52.66   0.0000720
   54.06   75.51    3.95   0.0000527
   54.23   75.59   14.73   0.0000655
   54.30   74.98   26.23   0.0000734
   54.10   74.90   36.19   0.0000779
   53.99   75.12   45.21   0.0000643
   54.01   75.28   54.14   0.0000495
   53.96   85.38    5.18   0.0000175
   54.02   85.49   14.25   0.0000195
   54.15   85.66   24.09   0.0000222
   54.20   85.36   34.74   0.0000226
   54.06   84.90   45.81   0.0000210
   53.95   85.12   55.74   0.0000169
   73.27   12.67  -10.22   0.0003023
   70.80   11.35   -5.16   0.0003133
  -90.64   85.48   -2.89   0.0003181
   80.65   10.85   34.15   0.0003133
   80.78   12.06   36.99   0.0003103
  -59.36   88.88   -6.81   0.0003066
   69.21   19.27   -5.46   0.0009663
   67.79   18.10   -1.42   0.0009671
  -92.56   76.47   -5.92   0.0009734
   71.57   17.69   43.27   0.0009448
   72.47   18.42   45.98   0.0009471
   71.62   19.23   49.39   0.0009770
   66.64   26.24   -1.82   0.0013371
   66.27   25.67    1.46   0.0014407
   66.94   27.09   12.56   0.0013899
   66.68   25.68   46.91   0.0013840
   66.83   25.70   52.79   0.0014431
   67.26   26.17   54.91   0.0013473
   65.66   35.22    1.28   0.0012396
   65.80   35.21    4.80   0.0011978
   65.63   35.10   13.80   0.0012064
   65.77   35.21   42.45   0.0012126
   65.59   35.13   54.03   0.0012089
   65.59   35.16   58.19   0.0012342
   65.27   45.12    4.27   0.0006635
   65.35   45.11    8.82   0.0006289
   65.24   45.03   17.01   0.0006168
   65.29   45.18   34.72   0.0006085
   65.39   45.06   51.38   0.0006257
   65.20   45.02   59.76   0.0006589
   64.49   54.75    7.00   0.0002137
   64.46   54.81   13.19   0.0002165
   64.37   54.91   21.36   0.0002139
   64.17   55.17   32.28   0.0002025
   64.73   55.04   47.61   0.0001999
   64.79   54.71   58.39   0.0002090
   63.99   64.76    6.03   0.0000758
   63.86   64.63   15.47   0.0000847
   63.70   64.87   24.74   0.0000863
   63.59   65.21   34.71   0.0000778
   63.62   65.48   45.12   0.0000688
   63.87   65.37   55.63   0.0000677
   63.53   75.56    5.08   0.0000614
   63.49   75.26   15.14   0.0000790
   63.54   74.94   25.18   0.0000864
   63.50   75.03   35.15   0.0000848
   63.46   75.27   45.11   0.0000702
   63.49   75.50   55.08   0.0000539
   63.44   85.38    5.01   0.0000338
   63.43   85.52   15.02   0.0000408
   63.41   85.57   25.00   0.0000416
   63.43   85.39   35.00   0.0000424
   63.46   85.20   45.00   0.0000394
   63.45   85.23   55.00   0.0000286
   76.48   11.37  -10.93   0.0003071
  -90.52   85.06   -1.75   0.0003164
   86.36   11.07   28.33   0.0003163
   85.85   12.29   31.81   0.0003119
  -59.36   87.89   -6.10   0.0003144
   78.20   12.72   44.75   0.0003137
   75.88   17.93   -9.79   0.0010026
   78.47   21.33    5.93   0.0009941
   79.40   17.71   35.20   0.0009905
   80.01   18.55   38.11   0.0009651
   78.74   19.26   41.98   0.0009867
   76.55   19.14   46.86   0.0010264
   75.77   25.56   -8.44   0.0014159
   76.00   27.01    5.84   0.0015100
   75.66   25.55   37.69   0.0014567
   75.93   25.68   42.98   0.0014591
   76.03   25.96   45.48   0.0015313
   75.71   25.95   48.39   0.0014357
   75.55   35.40   -5.13   0.0013264
   75.37   35.34    6.24   0.0012724
   75.48   35.40   33.33   0.0012902
   75.40   35.35   42.96   0.0013164
   75.41   35.38   47.10   0.0013126
   75.45   35.42   50.49   0.0013271
   75.04   45.07   -0.98   0.0007091
   74.76   45.15    9.03   0.0006673
   75.29   45.21   27.88   0.0006552
   75.20   45.04   40.43   0.0006628
   75.02   45.04   48.21   0.0006900
   75.06   45.11   53.09   0.0007152
   74.11   54.54    3.31   0.0002325
   73.81   54.86   13.27   0.0002288
   73.93   55.03   24.84   0.0002228
   74.76   54.60   37.03   0.0002146
   74.63   54.35   47.19   0.0002197
   74.30   54.39   55.50   0.0002297
   73.59   64.33    5.29   0.0000908
   73.37   64.64   15.29   0.0000985
   73.30   64.91   25.36   0.0000941
   73.44   64.96   35.41   0.0000847
   73.67   64.61   45.50   0.0000799
   73.77   64.24   55.50   0.0000808
   73.08   74.85    5.30   0.0000777
   73.17   74.77   15.28   0.0000987
   73.16   74.90   25.24   0.0001046
   73.15   75.07   35.21   0.0000971
   73.13   75.16   45.21   0.0000789
   73.07   75.08   55.25   0.0000654
   72.98   85.43    5.09   0.0000408
   72.93   85.39   15.12   0.0000536
   72.94   85.41   25.11   0.0000508
   72.99   85.46   35.07   0.0000488
   73.03   85.48   45.04   0.0000459
   73.03   85.47   55.05   0.0000318
  -90.39   84.85   -0.57   0.0003090
   92.10   11.23   22.47   0.0003149
   90.94   12.45   26.59   0.0003179
  -59.38   87.12   -5.20   0.0003146
   83.19   12.70   39.65   0.0003207
   82.21   11.33   43.24   0.0003188
   85.92   21.36    0.74   0.0010217
   87.52   17.74   26.81   0.0010096
   87.71   18.67   30.03   0.0010189
   86.03   19.26   34.35   0.0009946
   84.11   18.99   38.91   0.0010218
   84.18   17.78   41.60   0.0010609
   85.24   27.04    0.31   0.0014660
   85.12   25.59   27.93   0.0015799
   85.32   25.72   32.72   0.0015487
   85.27   25.87   35.39   0.0015453
   85.13   25.81   38.10   0.0016146
   85.34   25.59   41.62   0.0015026
   85.10   35.49    0.41   0.0013958
   85.12   35.49   23.97   0.0013619
   85.12   35.48   31.97   0.0014074
   85.14   35.50   35.93   0.0014420
   85.15   35.51   39.54   0.0014047
   85.21   35.49   45.18   0.0014050
   84.63   45.18    1.51   0.0007618
   85.43   45.04   19.41   0.0007283
   85.08   44.93   29.73   0.0007290
   84.99   44.97   36.40   0.0007442
   84.97   44.96   41.64   0.0007494
   84.72   45.03   49.76   0.0007645
   84.24   54.57    4.18   0.0002534
   85.23   54.43   15.81   0.0002491
   85.34   54.18   26.27   0.0002449
   84.85   54.05   36.07   0.0002417
   84.49   54.10   44.27   0.0002472
   84.09   54.36   53.83   0.0002515
   84.01   64.16    5.24   0.0001006
   84.36   64.15   15.18   0.0001050
   84.70   63.93   25.16   0.0000967
   84.64   63.74   35.24   0.0000925
   84.28   63.77   45.23   0.0000915
   83.98   63.97   55.22   0.0000920
   83.71   74.30    5.23   0.0000796
   83.69   74.39   15.22   0.0001005
   83.69   74.40   25.21   0.0001019
   83.70   74.30   35.22   0.0000932
   83.72   74.18   45.24   0.0000778
   83.73   74.20   55.24   0.0000700
   83.25   85.61    5.13   0.0000349
   83.24   85.55   15.13   0.0000462
   83.26   85.54   25.12   0.0000431
   83.28   85.58   35.11   0.0000390
   83.30   85.63   45.12   0.0000359
   83.29   85.65   55.13   0.0000266
  -65.64   84.22   -3.10   0.0003071
  -62.59   83.38   -4.47   0.0003165
  -59.41   86.52   -4.18   0.0003210
 -117.24   83.68   65.29   0.0003181
 -114.45   84.80   64.12   0.0003246
  -90.24   84.84   60.64   0.0003204
   95.82   17.81   18.23   0.0010319
  -62.26   77.51   -7.01   0.0010337
  -59.40   77.72   -8.69   0.0010521
 -117.75   78.54   69.16   0.0010199
   92.52   17.68   32.95   0.0010418
  -91.08   73.71   61.65   0.0010763
   94.63   25.59   18.10   0.0015104
   94.80   25.77   22.32   0.0016631
   94.64   25.88   25.10   0.0016397
   94.61   25.75   27.71   0.0016048
   94.86   25.59   31.70   0.0016488
   94.50   27.16   55.22   0.0015339
   94.74   35.48   14.49   0.0014721
   94.82   35.51   20.98   0.0014736
   94.84   35.50   24.72   0.0015273
   94.83   35.49   28.48   0.0015122
   94.84   35.49   35.63   0.0014467
   94.85   35.51   55.46   0.0014606
   95.32   45.01    9.86   0.0008318
   95.08   44.93   18.74   0.0008247
   95.04   44.99   24.45   0.0008219
   94.93   44.94   30.51   0.0008072
   94.61   45.07   40.18   0.0007944
   95.31   45.23   55.63   0.0008181
   96.08   54.42    5.61   0.0002837
   95.68   54.17   15.72   0.0002805
   95.26   54.04   24.66   0.0002761
   94.89   54.14   33.72   0.0002701
   95.15   54.48   43.84   0.0002722
   96.02   54.61   54.73   0.0002769
   96.19   64.10    4.64   0.0001031
   95.91   63.89   14.75   0.0001040
   95.62   63.79   24.84   0.0000981
   95.68   63.95   34.80   0.0000973
   96.03   64.25   44.71   0.0000992
   96.24   64.28   54.63   0.0000996
   96.32   74.28    4.76   0.0000713
   96.30   74.22   14.77   0.0000861
   96.39   74.24   24.77   0.0000875
   96.46   74.37   34.77   0.0000819
   96.45   74.43   44.77   0.0000706
   96.39   74.38   54.76   0.0000630
   96.73   85.45    4.84   0.0000174
   96.71   85.48   14.83   0.0000227
   96.69   85.47   24.82   0.0000219
   96.69   85.43   34.82   0.0000192
   96.70   85.41   44.83   0.0000170
   96.72   85.42   54.84   0.0000140
  -62.73   83.27   -3.27   0.0003071
  -59.44   86.18   -3.02   0.0003187
 -117.25   84.62   66.09   0.0003246
 -114.40   85.61   65.01   0.0003208
  -90.09   85.12   61.82   0.0003248
  -65.86   84.19   58.12   0.0003172
  -62.82   76.67   -4.50   0.0010466
  -59.79   76.83   -6.31   0.0010518
 -117.97   80.20   71.25   0.0010723
  100.73   17.63   24.47   0.0010250
  -89.25   74.03   63.76   0.0010417
  104.10   17.95   69.66   0.0010795
  104.21   25.90   12.03   0.0015696
  103.83   26.00   15.06   0.0017269
  103.97   25.74   17.47   0.0016756
  104.35   25.53   21.83   0.0015982
  103.64   27.37   50.16   0.0016476
  104.18   25.56   68.23   0.0015627
  104.53   35.44    9.99   0.0015793
  104.57   35.40   13.49   0.0015684
  104.56   35.37   17.37   0.0015704
  104.48   35.41   25.83   0.0015096
  104.61   35.39   50.37   0.0014605
  104.40   35.40   64.77   0.0015153
  104.97   45.10    7.45   0.0009321
  104.97   45.07   12.63   0.0009142
  104.74   45.06   20.00   0.0008703
  104.67   45.19   30.65   0.0008196
  105.25   45.20   49.12   0.0008228
  105.00   45.06   60.43   0.0008836
  105.79   54.39    4.94   0.0003256
  105.45   54.34   13.41   0.0003177
  105.42   54.64   23.26   0.0003045
  106.17   55.08   34.30   0.0002895
  106.29   54.89   45.78   0.0002968
  106.02   54.60   56.00   0.0003149
  106.24   64.30    4.62   0.0001107
  106.42   64.57   14.62   0.0001076
  106.62   64.95   24.61   0.0001044
  106.67   64.92   34.57   0.0001056
  106.60   64.68   44.55   0.0001083
  106.40   64.41   54.57   0.0001081
  106.93   74.82    4.68   0.0000703
  106.93   74.92   14.71   0.0000865
  106.86   74.93   24.74   0.0000902
  106.81   74.84   34.73   0.0000848
  106.79   74.75   44.70   0.0000744
  106.84   74.74   54.68   0.0000657
  106.97   85.14    4.82   0.0000320
  106.98   85.26   14.84   0.0000404
  106.96   85.34   24.83   0.0000383
  106.95   85.29   34.80   0.0000331
  106.95   85.18   44.78   0.0000299
  106.95   85.11   54.79   0.0000254
  -59.45   86.15   -1.72   0.0003075
 -117.19   85.81   66.72   0.0003205
 -114.18   86.73   65.71   0.0003266
  -89.94   85.54   62.95   0.0003188
  -66.15   84.55   59.47   0.0003205
  -62.89   83.54   58.07   0.0003157
  -60.18   76.36   -3.82   0.0010527
 -117.99   82.16   72.99   0.0010579
  108.64   17.61   16.31   0.0010658
  -89.50   76.77   66.43   0.0010108
  -66.55   76.80   59.68   0.0010343
  -63.43   76.33   58.16   0.0010853
  112.49   26.24    5.71   0.0015966
  113.00   25.77    7.69   0.0017252
  113.53   25.57   12.32   0.0016410
  112.54   27.65   44.61   0.0015692
  113.70   25.63   58.37   0.0016540
  113.24   26.19   62.24   0.0016014
  114.39   35.20    2.30   0.0016447
  114.38   35.15    6.27   0.0015679
  114.18   35.23   16.04   0.0015307
  114.38   35.16   43.93   0.0014873
  114.16   35.21   54.88   0.0014965
  114.31   35.26   59.08   0.0015871
  114.76   45.07    0.97   0.0010037
  114.55   45.08    9.21   0.0009262
  114.64   45.21   23.22   0.0008498
  114.76   45.07   41.77   0.0008241
  114.64   45.11   50.76   0.0008827
  114.71   45.15   56.18   0.0009750
  115.20   54.70    2.23   0.0003651
  115.33   55.09   12.97   0.0003378
  115.85   55.23   26.55   0.0003185
  115.69   54.94   37.71   0.0003146
  115.61   54.82   46.38   0.0003381
  115.53   54.74   53.55   0.0003669
  116.21   65.34    4.77   0.0001314
  116.34   65.45   14.89   0.0001263
  116.38   65.21   24.86   0.0001281
  116.31   64.91   34.67   0.0001305
  116.13   64.66   44.45   0.0001355
  116.04   64.74   54.44   0.0001341
  116.53   75.29    4.82   0.0000909
  116.49   75.12   14.82   0.0001131
  116.43   74.93   24.81   0.0001173
  116.38   74.89   34.80   0.0001100
  116.47   75.11   44.81   0.0000964
  116.55   75.32   54.82   0.0000834
  116.46   84.93    4.85   0.0000681
  116.45   84.96   14.88   0.0000858
  116.49   85.22   24.91   0.0000743
  116.51   85.39   34.90   0.0000670
  116.52   85.27   44.86   0.0000592
  116.51   85.07   54.83   0.0000496
 -117.10   87.15   67.20   0.0003075
 -113.91   87.98   66.27   0.0003212
  -89.79   86.31   64.00   0.0003247
  -66.35   84.94   60.74   0.0003145
  -63.00   83.84   59.34   0.0003185
  -59.45   86.28   59.57   0.0003153
 -117.93   84.26   74.37   0.0010441
 -114.90   83.99   73.50   0.0010397
  -89.24   78.22   68.75   0.0010439
  -67.18   77.04   62.41   0.0009956
  -63.99   76.47   60.88   0.0010331
  -60.49   76.42   58.79   0.0010866
  121.51   25.85   -1.34   0.0015652
  121.91   25.80    3.68   0.0016580
  -84.57   69.27   72.14   0.0015886
  122.83   25.92   48.91   0.0015597
  121.61   26.60   53.29   0.0016759
  120.46   26.50   57.27   0.0016118
  124.33   34.87   -4.92   0.0016037
  123.90   35.04    6.79   0.0014844
  124.22   34.89   36.40   0.0014653
  124.04   34.95   44.97   0.0015025
  124.20   35.00   48.38   0.0015554
  124.32   34.94   51.25   0.0016277
  124.48   44.86   -2.23   0.0009852
  124.62   44.95   16.27   0.0008768
  124.52   44.82   33.81   0.0008351
  124.48   44.93   40.87   0.0008775
  124.64   44.94   45.04   0.0009675
  124.72   44.85   49.26   0.0010245
  124.88   55.00    3.04   0.0003749
  125.13   54.94   19.73   0.0003410
  124.98   54.87   29.74   0.0003417
  125.00   54.95   36.47   0.0003643
  125.09   54.90   42.00   0.0003995
  124.87   54.83   50.67   0.0004120
  125.69   65.27    7.24   0.0001502
  125.63   65.02   17.31   0.0001495
  125.67   64.98   25.44   0.0001559
  125.62   64.88   33.00   0.0001589
  125.32   64.80   42.65   0.0001650
  125.44   65.25   54.45   0.0001583
  125.96   75.19    5.62   0.0001084
  125.97   75.07   14.33   0.0001348
  125.84   74.82   23.87   0.0001397
  125.66   74.90   34.09   0.0001264
  125.78   75.55   45.72   0.0001098
  125.90   75.44   56.01   0.0000978
  125.93   84.92    4.18   0.0000778
  125.78   84.74   14.20   0.0000987
  125.68   85.16   25.20   0.0000832
  125.83   85.51   35.92   0.0000738
  125.95   85.32   45.74   0.0000659
  125.98   85.16   54.78   0.0000557
 -113.59   89.35   66.66   0.0003066
  -89.65   87.28   64.93   0.0003196
  -66.58   85.67   62.04   0.0003218
  -63.12   84.59   60.70   0.0003119
  -59.44   86.58   60.81   0.0003180
 -116.95   88.71  127.48   0.0003137
 -114.09   86.09   74.51   0.0010169
  -89.13   80.12   70.85   0.0010144
  -67.74   77.89   65.14   0.0010293
  -64.38   77.02   63.51   0.0009919
 -120.53   87.12  136.39   0.0010272
 -117.53   86.78  135.27   0.0010705
  129.45   26.07   -4.17   0.0014760
  -85.06   71.04   75.87   0.0015841
  131.28   26.34   40.21   0.0015595
  -66.57   69.01   67.17   0.0015634
 -122.01   86.00  145.15   0.0016627
  129.35   25.91   50.52   0.0015562
  131.72   35.68   -1.12   0.0014860
  133.47   35.29   28.28   0.0014076
  133.53   34.96   35.56   0.0014613
  132.74   35.25   39.52   0.0015479
  132.69   35.04   42.48   0.0015560
  133.99   34.66   44.41   0.0015549
  134.30   44.96    8.58   0.0009121
  134.60   44.49   25.39   0.0008453
  134.56   44.62   31.05   0.0008751
  134.74   44.64   34.32   0.0009585
  134.88   44.54   37.77   0.0009970
  134.60   44.52   45.66   0.0009812
  135.09   54.59   12.50   0.0003757
  134.91   54.60   21.38   0.0003637
  134.99   54.71   26.44   0.0003892
  135.16   54.67   30.64   0.0004250
  135.04   54.58   38.12   0.0004392
  134.91   54.67   52.31   0.0004179
  135.19   64.73   10.22   0.0001638
  135.19   64.82   16.80   0.0001708
  135.33   64.86   21.87   0.0001761
  135.28   64.75   29.93   0.0001793
  135.14   64.78   42.19   0.0001862
  135.33   64.82   59.96   0.0001738
  135.33   74.98    6.08   0.0001094
  135.43   75.05   11.82   0.0001360
  135.39   74.92   20.86   0.0001369
  135.30   74.94   33.35   0.0001213
  135.43   75.03   49.15   0.0001108
  135.36   74.90   59.08   0.0000992
  135.45   85.22    1.23   0.0000573
  135.46   85.07   10.88   0.0000700
  135.38   85.13   24.72   0.0000619
  135.46   85.18   39.08   0.0000534
  135.44   85.06   48.53   0.0000484
  135.40   85.14   55.06   0.0000436
  -89.52   88.36   65.72   0.0003051
  -66.66   86.45   63.17   0.0003167
  -63.51   86.75   62.63   0.0003190
  -59.41   87.09   62.00   0.0003109
 -116.91   89.98  127.71   0.0003156
 -113.40   90.67  126.93   0.0003117
  -89.05   82.48   72.65   0.0009863
  -68.09   79.25   67.70   0.0009898
  -64.57   78.05   65.99   0.0010146
 -120.09   91.01  136.33   0.0009782
 -117.16   89.31  135.81   0.0009992
 -113.23   88.43  135.15   0.0010321
  -87.83   75.35   79.89   0.0014046
  -70.46   71.67   73.02   0.0015413
  -67.23   70.63   71.09   0.0015482
 -121.02   89.67  145.87   0.0015306
 -118.56   89.08  145.01   0.0015891
 -112.91   85.88  144.31   0.0014578
  -82.38   67.29   84.40   0.0013937
  141.73   35.44   27.44   0.0013839
  -71.19   63.63   77.56   0.0014771
 -122.44   90.74  155.12   0.0015210
  141.90   34.70   36.16   0.0014603
 -109.83   81.23  153.32   0.0014238
  144.13   44.63   17.09   0.0008733
  143.39   44.73   22.85   0.0008712
  142.59   44.73   26.85   0.0009332
  143.46   44.42   29.07   0.0009735
  143.79   44.38   34.38   0.0009358
 -104.33   73.23  161.48   0.0008987
  144.95   54.35   13.38   0.0003861
  144.50   54.48   18.03   0.0003995
  144.64   54.41   21.38   0.0004327
  145.26   54.32   25.38   0.0004448
  144.00   54.57   38.89   0.0004300
  144.69   54.75   64.57   0.0004049
  145.30   64.53    9.14   0.0001762
  145.32   64.59   13.00   0.0001865
  145.68   64.59   17.02   0.0001877
  145.27   64.43   26.89   0.0001869
  144.84   64.96   50.26   0.0001920
  145.50   64.44   63.31   0.0001837
  145.52   74.82    4.20   0.0001044
  145.76   74.90    8.33   0.0001232
  145.64   74.70   17.18   0.0001226
  145.00   74.97   36.59   0.0001146
  145.74   74.73   52.92   0.0001064
  145.58   74.73   59.84   0.0000976
  145.69   85.15   -0.73   0.0000306
  145.74   85.04    6.97   0.0000358
  144.95   84.98   23.79   0.0000336
  145.77   85.10   42.70   0.0000305
  145.69   85.00   50.51   0.0000281
  145.51   85.02   55.19   0.0000252
  -66.85   87.66   64.31   0.0003020
  -63.52   87.68   63.73   0.0003129
  -59.35   87.88   63.16   0.0003155
 -116.31   92.87  127.26   0.0003078
 -112.98   92.23  126.95   0.0003128
  -89.39   89.63  126.33   0.0003077
  -68.17   81.11   69.95   0.0009651
  -64.77   80.68   68.98   0.0009688
 -119.78   94.15  136.16   0.0009837
 -116.57   92.26  135.88   0.0009458
 -112.39   91.06  135.41   0.0009574
  -88.89   85.12  134.07   0.0009917
  -70.82   74.46   76.74   0.0013647
  -67.29   73.03   74.82   0.0015120
 -119.62   94.58  145.70   0.0014936
 -116.97   92.92  145.22   0.0014384
 -111.06   89.29  144.87   0.0014710
  -88.57   79.92  142.53   0.0013724
  -74.80   68.58   84.52   0.0013562
  -71.25   66.75   82.09   0.0013695
 -119.82   95.52  155.32   0.0014370
 -117.82   94.35  154.69   0.0014042
 -107.61   86.06  154.46   0.0013305
  -87.10   73.19  150.38   0.0013269
  -80.19   63.87   93.74   0.0008730
  -76.40   61.41   90.65   0.0008970
 -120.08   97.87  164.82   0.0009260
 -117.80   96.03  164.34   0.0008972
 -104.44   81.53  163.97   0.0008516
  -86.11   67.29  157.45   0.0008538
  -86.97   60.59  104.37   0.0004077
 -122.21  104.03  174.86   0.0004242
 -120.16  102.20  174.22   0.0004446
 -115.69   94.78  174.45   0.0004335
 -103.12   76.14  173.42   0.0004135
  -90.38   64.18  167.34   0.0004009
  -94.20   58.85  115.72   0.0001899
 -120.66  108.15 -175.54   0.0001995
  153.47   64.06   15.44   0.0001936
 -112.53   88.77 -175.22   0.0001921
 -101.03   69.09 -178.51   0.0002008
  -96.48   62.81  178.47   0.0001923
 -119.25  116.01 -164.74   0.0001080
 -117.59  113.24 -165.27   0.0001242
 -115.74  103.54 -165.24   0.0001249
 -110.84   82.26 -165.27   0.0001200
 -104.72   68.23 -167.96   0.0001171
 -103.26   63.29 -170.00   0.0001065
 -114.38  119.90 -153.81   0.0000583
 -113.64  114.87 -154.35   0.0000704
 -113.60   96.95 -154.83   0.0000667
 -110.56   76.67 -155.74   0.0000627
 -109.36   69.51 -157.18   0.0000606
 -109.06   64.83 -158.81   0.0000529
  -63.47   88.76   64.67   0.0002987
  -59.27   88.82   64.18   0.0003091
 -116.21   94.37  127.04   0.0003111
 -112.85   93.65  126.85   0.0003063
  -89.26   91.05  126.76   0.0003090
  -66.81   88.80  125.18   0.0003023
  -64.61   83.08   71.11   0.0009409
 -119.50   97.25  135.54   0.0009322
 -115.85   95.58  135.47   0.0009412
 -111.92   93.93  135.28   0.0009101
  -88.64   88.24  135.06   0.0009262
  -68.07   83.55  131.92   0.0009642
  -66.85   77.30   78.86   0.0013237
 -118.55   99.45  144.90   0.0014375
 -115.50   97.13  144.82   0.0013894
 -109.01   93.47  144.86   0.0013323
  -88.39   84.91  144.24   0.0013941
  -70.45   78.07  139.83   0.0013304
  -70.07   71.95   87.54   0.0013178
 -117.33  101.66  154.55   0.0012994
 -114.87   99.08  154.37   0.0013143
 -105.17   91.84  154.85   0.0012769
  -88.58   81.29  153.58   0.0012436
  -73.94   73.14  148.57   0.0012891
  -74.21   67.22   97.17   0.0008685
 -115.85  103.93  164.37   0.0008609
 -113.53  100.81  164.14   0.0008423
 -102.11   89.62  164.83   0.0008236
  -88.71   76.81  162.80   0.0008030
  -78.44   69.51  158.36   0.0008483
  -79.10   63.40  107.92   0.0004238
 -114.14  106.45  174.28   0.0004273
 -111.15  101.24  174.28   0.0004264
 -100.79   87.39  174.80   0.0004152
  -90.01   72.82  172.22   0.0004089
  -83.57   66.84  168.97   0.0004174
  -84.73   60.46  119.45   0.0002041
 -112.04  109.29 -175.69   0.0002096
 -108.29  100.37 -175.32   0.0002016
 -100.57   85.16 -175.28   0.0002004
  -93.26   71.00 -177.62   0.0002149
  -88.85   65.46 -179.54   0.0002068
 -109.67  116.52 -164.86   0.0001233
 -108.94  111.25 -165.34   0.0001392
 -105.38   98.12 -164.95   0.0001481
 -101.06   82.45 -165.38   0.0001455
  -96.77   70.10 -167.16   0.0001420
  -93.88   64.74 -167.94   0.0001294
 -104.90  118.55 -153.79   0.0000856
 -105.22  111.55 -154.73   0.0001097
 -103.60   95.89 -154.84   0.0001058
 -102.28   79.89 -155.38   0.0001005
 -100.35   70.26 -156.40   0.0001016
  -98.67   64.55 -156.57   0.0000834
  -59.15   90.00   65.12   0.0002959
 -116.17   95.82  126.62   0.0003044
 -112.61   95.18  126.52   0.0003098
  -89.12   92.70  127.00   0.0003036
  -66.82   90.22  125.96   0.0003041
  -63.42   90.11  125.52   0.0002982
 -119.30  100.29  134.42   0.0009075
 -115.40   98.65  134.64   0.0008931
 -110.96   97.16  134.71   0.0009076
  -88.21   91.57  135.62   0.0008866
  -67.63   86.26  133.43   0.0008991
  -64.28   85.89  132.91   0.0009342
 -117.70  104.14  143.36   0.0012484
 -113.99  101.85  143.72   0.0013358
 -107.93   98.51  144.23   0.0012975
  -87.48   90.21  145.19   0.0012717
  -69.57   82.53  142.25   0.0013511
  -65.96   81.56  141.48   0.0012811
 -115.32  107.97  152.81   0.0012244
 -111.95  104.91  153.25   0.0011870
 -103.21   98.64  154.48   0.0012070
  -87.06   88.86  154.96   0.0012042
  -72.27   79.30  151.74   0.0011997
  -68.30   77.43  150.63   0.0012371
 -112.20  111.40  162.73   0.0008072
 -109.05  107.53  163.23   0.0007751
  -99.34   98.17  164.78   0.0007686
  -86.92   87.29  164.79   0.0007821
  -75.46   76.85  161.76   0.0007850
  -71.24   73.80  160.46   0.0008245
 -108.30  114.34  173.11   0.0004074
 -105.44  109.32  173.61   0.0004033
  -96.58   97.56  174.99   0.0004028
  -87.10   85.78  174.65   0.0004130
  -78.77   74.92  172.00   0.0004141
  -74.67   70.66  170.80   0.0004131
 -103.72  116.64 -176.06   0.0002107
 -101.26  110.12 -175.70   0.0002150
  -94.53   96.87 -174.86   0.0002121
  -87.65   84.03 -175.47   0.0002126
  -82.07   73.37 -177.61   0.0002275
  -78.60   67.98 -178.54   0.0002174
  -80.60   59.23  131.41   0.0001353
  -96.94  110.14 -164.89   0.0001564
  -92.80   96.02 -164.74   0.0001680
  -88.64   82.68 -165.52   0.0001609
  -85.44   72.02 -167.13   0.0001633
  -83.04   65.87 -167.74   0.0001463
  -86.80   57.77  142.25   0.0000944
  -92.85  109.86 -154.14   0.0001231
  -91.30   95.01 -154.67   0.0001229
  -90.00   81.57 -155.50   0.0001178
  -88.92   71.22 -156.55   0.0001157
  -87.69   64.54 -157.07   0.0000964
 -116.14   97.26  125.98   0.0002926
 -112.48   96.66  126.00   0.0003043
  -89.00   94.33  127.02   0.0003083
  -66.66   91.65  126.49   0.0002992
  -63.32   91.55  126.18   0.0003007
  -59.03   91.30  125.88   0.0002942
 -114.99  101.83  133.31   0.0008741
 -110.54  100.46  133.70   0.0008681
   89.19   94.70  -75.60   0.0008870
   50.89   84.40  -10.36   0.0008694
   54.33   84.98  -11.31   0.0008742
   58.95   86.06  -12.51   0.0008981
 -112.74  106.68  141.87   0.0011628
 -107.05  104.01  142.91   0.0012574
   88.71   93.61  -85.19   0.0012466
  107.61  100.86  -84.16   0.0012332
  111.40  102.36  -83.86   0.0012901
   59.68   80.20  -20.23   0.0012001
 -109.39  111.09  151.22   0.0011145
   72.74   82.12  -92.45   0.0010911
   88.30   92.44  -94.99   0.0011393
  104.61  101.52  -94.24   0.0011558
  108.72  104.37  -93.82   0.0011276
  113.64  107.89  -94.01   0.0011368
  -58.85   72.77   99.63   0.0007282
   75.88   79.58 -102.39   0.0007059
   88.07   91.21 -104.85   0.0007312
  101.14  101.41 -104.58   0.0007527
  105.71  106.06 -104.09   0.0007431
  110.27  110.83 -104.48   0.0007478
   72.34   68.75 -109.25   0.0003746
   78.87   77.39 -112.47   0.0003786
   88.08   89.94 -114.73   0.0003918
   98.06  100.97 -114.88   0.0004063
  102.47  107.38 -114.54   0.0003958
  106.30  113.25 -115.15   0.0003782
   76.83   65.72 -119.76   0.0002000
   81.85   75.42 -122.66   0.0002147
   88.34   88.68 -124.64   0.0002142
   95.40  100.33 -125.12   0.0002148
   99.10  108.34 -125.07   0.0002260
  101.88  114.98 -125.79   0.0002130
   81.85   63.31 -130.66   0.0001319
   85.04   73.33 -132.94   0.0001566
   88.95   87.41 -134.59   0.0001706
   93.28   99.75 -135.27   0.0001557
   95.70  108.94 -135.60   0.0001616
   97.20  115.96 -136.18   0.0001469
   87.33   61.79 -141.94   0.0000881
   88.73   71.47 -143.42   0.0001120
   89.87   86.19 -144.58   0.0001262
   91.53   99.23 -145.39   0.0001088
   92.28  109.17 -146.09   0.0001071
   92.41  116.16 -146.52   0.0001009
 -112.37   98.11  125.28   0.0002932
   89.72   94.21  -66.77   0.0003044
  -66.58   93.27  126.87   0.0003038
   54.78   89.72   -3.97   0.0002962
   59.05   90.05   -4.74   0.0002968
  -54.99   92.02  126.25   0.0002907
   67.75   85.60  -72.35   0.0008546
   89.58   91.49  -75.11   0.0008494
  110.74   95.83  -75.24   0.0008624
  114.27   96.68  -75.27   0.0008488
  118.82   98.07  -75.41   0.0008407
   63.46   84.34  -11.37   0.0008635
   70.03   79.46  -80.38   0.0011053
   89.70   88.60  -84.39   0.0012153
  109.19   95.28  -84.96   0.0012067
  112.89   97.33  -84.98   0.0011800
  117.39   99.85  -85.12   0.0012128
   64.89   77.52  -18.57   0.0011194
   73.29   74.01  -89.25   0.0010370
   90.30   85.71  -93.92   0.0010409
  107.29   94.57  -94.88   0.0010957
  111.44   98.21  -94.88   0.0010803
  115.64  101.87  -94.97   0.0010294
   67.62   71.32  -26.68   0.0010303
   77.35   69.48  -98.84   0.0006629
   91.53   82.55 -103.61   0.0006660
  104.93   93.34 -104.88   0.0006889
  110.19   99.17 -104.86   0.0006847
  113.57  103.73 -104.78   0.0006547
  117.94  107.45 -104.42   0.0006597
   81.95   65.61 -108.95   0.0003459
   93.22   79.29 -113.44   0.0003522
  103.41   91.83 -114.88   0.0003600
  108.75  100.28 -114.87   0.0003608
  111.31  105.26 -114.65   0.0003413
  115.26  110.19 -113.75   0.0003329
   87.27   62.41 -119.60   0.0001853
   95.30   75.85 -123.41   0.0001990
  102.33   89.73 -124.86   0.0001924
  107.28  101.08 -124.94   0.0001913
  108.91  106.57 -124.79   0.0002028
  111.84  112.55 -123.73   0.0001935
   93.28   60.70 -130.86   0.0001226
   97.92   72.37 -133.54   0.0001411
  102.00   87.60 -134.82   0.0001498
  105.56  101.11 -135.06   0.0001396
  106.36  107.79 -135.13   0.0001502
  107.73  114.40 -134.27   0.0001380
   99.31   60.79 -142.43   0.0000817
  101.24   69.88 -143.98   0.0000954
  102.36   85.71 -144.79   0.0001061
  103.92  100.74 -145.20   0.0000959
  103.59  109.10 -145.65   0.0000954
  103.26  115.50 -145.24   0.0000920
   89.81   92.82  -66.35   0.0002938
  112.30   94.56  -66.68   0.0002998
  115.67   94.63  -66.78   0.0002996
   59.08   88.94   -3.61   0.0002931
   63.27   89.53   -4.25   0.0002939
   67.00   90.16   -4.75   0.0002896
   89.96   88.43  -74.17   0.0008450
  111.47   92.31  -75.45   0.0008307
  114.88   93.36  -75.69   0.0008374
  119.25   94.94  -76.01   0.0008211
   63.68   81.61   -9.17   0.0008127
   67.93   82.49  -10.37   0.0008407
   90.69   83.60  -82.94   0.0010829
  110.60   90.37  -85.03   0.0011889
  114.42   92.65  -85.39   0.0011596
  118.52   95.15  -85.72   0.0011160
  122.66   97.05  -86.17   0.0011397
   70.16   74.88  -17.28   0.0010703
   92.12   78.16  -92.03   0.0009985
  109.69   88.47  -94.70   0.0010083
  114.46   92.37  -95.20   0.0010357
  117.83   95.71  -95.46   0.0009868
  122.02   98.45  -95.47   0.0009380
   73.39   68.09  -25.08   0.0009687
   93.73   72.75 -101.27   0.0006148
  108.86   85.77 -104.46   0.0006143
  114.53   92.74 -105.01   0.0006160
  117.21   96.34 -105.32   0.0005906
  121.08  100.30 -105.16   0.0005748
   77.81   61.92  -33.80   0.0005963
   95.12   66.34 -110.35   0.0003009
  107.38   81.83 -114.12   0.0002993
  114.44   93.05 -114.86   0.0003011
  116.85   97.06 -115.32   0.0002990
  119.84  102.07 -115.14   0.0002892
   83.94   57.29  -44.02   0.0002891
   97.54   61.09 -119.81   0.0001551
  107.33   77.92 -123.84   0.0001624
  114.02   93.07 -124.76   0.0001523
  116.28   98.70 -125.29   0.0001583
  118.35  103.86 -125.42   0.0001732
   91.60   54.35  -55.64   0.0001678
  101.95   57.78 -130.23   0.0001054
  108.39   72.83 -133.71   0.0001186
  113.36   92.14 -134.71   0.0001207
  114.94  101.00 -135.32   0.0001197
  116.35  105.96 -136.04   0.0001371
  100.07   53.60  -68.18   0.0001234
  108.05   57.70 -141.89   0.0000658
  110.12   67.24 -143.70   0.0000824
  112.80   87.10 -144.72   0.0000831
  112.93  102.59 -145.46   0.0000754
  113.35  108.48 -146.59   0.0000905
  113.53  113.98 -147.69   0.0000805
  112.48   92.93  -66.61   0.0002910
  115.82   93.03  -66.82   0.0002963
   59.10   88.05   -2.39   0.0002951
   63.31   88.41   -3.11   0.0002912
   67.05   88.93   -3.71   0.0002931
   89.92   91.50   -5.74   0.0002886
  112.07   89.15  -75.18   0.0008419
  115.48   90.29  -75.61   0.0008153
  119.70   91.87  -76.14   0.0008090
   63.76   79.54   -6.77   0.0008017
   67.98   80.09   -8.12   0.0007983
   90.29   85.57  -12.83   0.0008313
  111.95   86.04  -84.42   0.0010814
  115.99   88.12  -85.15   0.0011583
  119.62   90.65  -85.71   0.0010980
  123.58   92.30  -86.34   0.0010644
   69.79   71.53  -13.59   0.0011044
   91.41   78.33  -20.83   0.0010579
  111.94   82.85  -93.76   0.0009697
  116.92   86.97  -94.74   0.0009550
  120.00   89.55  -95.46   0.0009488
  123.70   92.36  -96.06   0.0009110
   72.79   63.65  -19.95   0.0008853
   92.49   71.28  -29.00   0.0009377
  111.31   78.54 -103.08   0.0005587
  118.11   86.48 -104.43   0.0005446
  120.80   89.06 -105.26   0.0005281
  123.95   92.81 -105.97   0.0005169
   77.47   56.65  -27.70   0.0005153
   92.32   63.20  -36.49   0.0005471
  110.24   72.77 -112.12   0.0002483
  118.99   86.63 -114.07   0.0002413
  121.68   90.03 -115.00   0.0002419
  124.19   93.84 -116.07   0.0002533
   84.14   51.08  -37.53   0.0002464
   91.49   55.63  -42.88   0.0002422
  109.23   65.17 -120.77   0.0001197
 -143.92   64.45   23.50   0.0001242
 -144.07   64.49   30.37   0.0001222
  123.90   95.82 -125.40   0.0001328
 -143.89   65.40   38.46   0.0001466
 -144.50   65.02   43.63   0.0001347
 -145.09   74.93   -4.71   0.0000867
 -143.70   74.92   17.97   0.0000937
 -145.27   74.37   32.68   0.0000962
 -144.94   74.57   38.33   0.0001015
 -144.71   74.95   42.56   0.0001182
 -145.26   74.59   46.54   0.0001020
 -145.72   84.61   -3.70   0.0000576
 -145.29   84.98    8.48   0.0000661
 -145.24   84.56   31.08   0.0000651
 -145.75   84.66   41.39   0.0000617
 -145.45   84.76   46.81   0.0000793
 -145.45   84.78   50.95   0.0000725
  115.96   91.55  -66.64   0.0002893
  120.22   92.21  -67.07   0.0002931
   63.34   87.55   -1.90   0.0002923
   67.09   87.95   -2.57   0.0002915
   89.99   90.41   -4.95   0.0002937
  112.65   91.41   -6.33   0.0002871
  116.10   87.38  -75.08   0.0008370
  120.12   89.06  -75.76   0.0007945
   63.63   78.01   -4.13   0.0007892
   67.68   78.26   -5.53   0.0007959
   90.59   82.59  -11.11   0.0007934
  112.67   86.32  -14.47   0.0008304
  117.11   84.11  -84.17   0.0010631
  120.63   86.17  -85.08   0.0011119
  124.38   87.97  -85.99   0.0010510
   69.10   69.12   -9.40   0.0010419
   91.53   74.01  -18.03   0.0010938
  113.28   82.06  -23.24   0.0010556
  119.01   81.73  -93.55   0.0009311
  121.88   83.65  -94.61   0.0008909
  125.21   86.45  -95.66   0.0008844
   71.62   60.51  -14.08   0.0008655
   91.21   65.21  -24.49   0.0008587
  114.12   78.02  -32.16   0.0009175
 -132.46   45.16   11.69   0.0004993
  123.80   82.64 -104.19   0.0004782
  126.46   85.60 -105.44   0.0004735
 -133.22   45.88   22.96   0.0004750
   88.06   56.54  -28.70   0.0004698
  114.14   73.19  -40.91   0.0004986
 -134.61   54.32   13.80   0.0002016
 -134.25   54.55   18.91   0.0002008
 -134.09   54.96   22.60   0.0002075
 -134.54   54.74   26.58   0.0002181
 -134.72   54.64   33.35   0.0002039
 -132.99   55.73   55.42   0.0001976
 -135.24   64.22   11.72   0.0000907
 -135.48   64.24   21.47   0.0000978
 -135.35   64.31   26.57   0.0001019
 -135.26   64.29   30.59   0.0001129
 -135.29   64.16   36.16   0.0001158
 -135.31   64.48   48.54   0.0001006
 -135.51   74.49    3.19   0.0000696
 -135.50   74.40   20.60   0.0000713
 -135.58   74.48   29.38   0.0000747
 -135.48   74.47   35.05   0.0000828
 -135.42   74.39   39.94   0.0000967
 -135.56   74.42   48.35   0.0000786
 -135.60   84.70    0.07   0.0000410
 -135.51   84.68   14.02   0.0000429
 -135.56   84.62   29.34   0.0000422
 -135.57   84.72   38.42   0.0000423
 -135.50   84.66   44.94   0.0000537
 -135.50   84.57   50.69   0.0000489
  120.32   90.88  -66.76   0.0002876
   63.35   86.97   -0.65   0.0002915
   67.11   87.24   -1.37   0.0002933
   90.05   89.51   -4.02   0.0002939
  112.79   90.06   -5.85   0.0002925
  116.08   90.23   -6.23   0.0002847
  120.47   86.34  -74.96   0.0008252
   63.43   77.16   -1.43   0.0007774
   67.39   77.16   -2.85   0.0007802
   90.70   80.32   -9.05   0.0007991
  113.15   83.84  -13.33   0.0007959
  116.55   84.77  -14.09   0.0008232
  121.40   81.87  -83.80   0.0010468
  125.00   83.82  -84.90   0.0010767
   68.30   67.68   -4.98   0.0010274
   91.30   70.63  -14.61   0.0010418
  114.23   78.49  -21.43   0.0010964
  118.03   80.20  -22.60   0.0010494
  123.38   78.25  -92.95   0.0008940
  126.41   80.63  -94.43   0.0008472
 -122.89   36.82   10.95   0.0008480
   89.80   61.44  -19.13   0.0008352
 -121.19   36.33   54.34   0.0008408
  120.63   76.65  -31.61   0.0008967
 -123.52   45.26    6.22   0.0004598
 -123.86   45.50   10.07   0.0004406
 -124.28   44.99   14.12   0.0004374
 -124.07   45.69   23.77   0.0004323
 -123.36   45.30   53.09   0.0004239
 -124.07   44.75   62.93   0.0004579
 -125.10   54.34    9.43   0.0001731
 -125.00   54.42   13.43   0.0001751
 -124.89   54.37   17.60   0.0001827
 -125.03   54.28   25.53   0.0001815
 -124.76   54.62   46.45   0.0001638
 -125.05   54.33   62.84   0.0001616
 -125.29   64.44    9.88   0.0000751
 -125.27   64.48   16.54   0.0000822
 -125.16   64.47   21.63   0.0000882
 -125.20   64.41   28.82   0.0000936
 -125.34   64.49   40.60   0.0000903
 -125.11   64.44   59.53   0.0000786
 -125.33   74.50    7.84   0.0000571
 -125.53   74.53   17.91   0.0000581
 -125.57   74.54   25.65   0.0000636
 -125.52   74.51   32.33   0.0000699
 -125.62   74.67   41.64   0.0000768
 -125.56   74.77   53.45   0.0000656
 -125.83   85.04    4.08   0.0000136
 -125.66   84.46   16.38   0.0000144
 -125.81   84.44   26.62   0.0000146
 -125.92   84.56   35.66   0.0000156
 -125.93   84.60   43.88   0.0000204
 -125.95   84.90   53.51   0.0000171
   63.37   86.69    0.61   0.0002878
   67.02   86.81   -0.11   0.0002939
   90.13   88.61   -2.97   0.0002944
  112.90   88.91   -5.18   0.0002932
  116.23   89.04   -5.63   0.0002904
  120.42   89.73   -6.23   0.0002832
   63.16   76.86    1.32   0.0008153
   67.15   76.72   -0.14   0.0007710
   90.73   78.24   -6.72   0.0007774
  113.53   81.67  -11.81   0.0008075
  116.84   82.49  -12.66   0.0007927
  120.72   83.92  -13.71   0.0008107
  125.35   79.80  -83.19   0.0010227
   67.33   67.05   -0.36   0.0010526
   91.03   68.18  -10.78   0.0010197
  115.00   75.24  -19.12   0.0010533
  118.60   76.58  -20.42   0.0011038
  121.88   78.06  -21.82   0.0010417
 -113.41   37.04   -2.25   0.0008561
 -113.94   36.23    1.94   0.0008104
   88.86   59.03  -13.43   0.0008193
 -112.84   35.97   45.71   0.0008223
 -112.42   36.33   50.48   0.0008373
  124.30   73.32  -30.25   0.0008713
 -114.62   44.90    0.30   0.0004303
 -114.58   44.65    4.65   0.0004069
 -114.65   45.14   16.40   0.0004002
 -114.53   44.75   44.19   0.0003896
 -114.72   44.61   52.91   0.0003954
 -114.54   44.84   56.72   0.0004315
 -114.97   54.60    2.93   0.0001597
 -114.91   54.57    8.33   0.0001574
 -115.08   54.52   17.77   0.0001587
 -114.92   54.61   38.32   0.0001489
 -114.99   54.54   51.33   0.0001398
 -115.04   54.55   58.32   0.0001462
 -115.46   64.45    5.64   0.0000736
 -115.44   64.47   12.21   0.0000791
 -115.59   64.58   21.35   0.0000824
 -115.61   64.72   33.50   0.0000830
 -115.20   64.52   48.26   0.0000800
 -115.39   64.43   58.29   0.0000735
 -115.95   74.21    6.14   0.0000561
 -116.09   74.35   15.24   0.0000569
 -116.18   74.56   24.32   0.0000617
 -116.26   74.86   34.30   0.0000678
 -116.12   74.96   44.88   0.0000725
 -115.84   74.40   56.05   0.0000618
 -116.35   84.60    5.11   0.0000089
 -116.31   84.28   15.22   0.0000099
 -116.38   84.39   25.12   0.0000100
 -116.46   84.64   35.02   0.0000110
 -116.48   84.85   44.99   0.0000139
 -116.43   84.90   55.02   0.0000109
   67.03   86.70    1.11   0.0002914
   90.17   88.03   -1.83   0.0002949
  113.10   87.96   -4.36   0.0002924
  116.36   88.04   -4.86   0.0002928
  120.50   88.71   -5.52   0.0002890
   63.34   86.65   61.86   0.0002831
   66.78   76.69    2.64   0.0008110
   90.66   77.15   -4.17   0.0007712
  113.69   79.89   -9.92   0.0007795
  117.00   80.48  -10.88   0.0008115
  120.86   81.83  -12.05   0.0007845
   62.87   77.06   64.06   0.0007954
   66.35   67.25    4.23   0.0010054
   90.97   66.53   -6.74   0.0010474
  115.31   72.45  -16.20   0.0010275
  118.74   73.42  -17.59   0.0010717
  122.06   74.67  -19.23   0.0011008
   62.47   67.60   66.20   0.0010191
 -104.57   35.84   -7.52   0.0008207
   89.36   57.79   -8.17   0.0007874
 -103.88   35.73   36.54   0.0008074
 -103.48   36.19   41.04   0.0008266
 -103.71   36.62   44.34   0.0008317
 -104.45   36.55   48.27   0.0008439
 -104.71   44.77   -4.88   0.0004023
 -104.85   45.00   10.31   0.0003746
 -104.81   44.78   34.36   0.0003664
 -104.85   44.74   42.15   0.0003692
 -104.84   44.80   46.13   0.0003860
 -104.80   44.82   49.77   0.0004117
 -105.10   54.64   -0.96   0.0001496
 -105.26   54.67   10.48   0.0001395
 -104.96   54.71   30.09   0.0001374
 -105.05   54.63   40.37   0.0001330
 -105.09   54.64   46.94   0.0001326
 -105.06   54.66   52.03   0.0001446
 -105.82   64.31    3.06   0.0000756
 -106.07   64.56   13.29   0.0000773
 -105.76   64.61   25.71   0.0000768
 -105.33   64.24   37.37   0.0000770
 -105.58   64.12   47.00   0.0000772
 -105.68   64.16   54.56   0.0000760
 -106.32   74.13    5.14   0.0000572
 -106.50   74.42   15.07   0.0000588
 -106.49   74.63   25.10   0.0000633
 -106.26   74.50   35.15   0.0000695
 -106.01   73.97   45.39   0.0000715
 -106.08   73.90   55.36   0.0000640
 -106.60   84.04    5.10   0.0000080
 -106.70   84.20   15.06   0.0000090
 -106.79   84.40   25.01   0.0000095
 -106.81   84.51   34.99   0.0000104
 -106.77   84.39   45.02   0.0000126
 -106.64   84.12   55.08   0.0000100
   90.19   87.71   -0.63   0.0002935
  113.17   87.27   -3.38   0.0002935
  116.42   87.31   -3.92   0.0002922
  120.56   87.87   -4.65   0.0002933
   63.32   86.86   63.04   0.0002891
   66.94   86.84   62.32   0.0002851
   90.56   76.49   -1.50   0.0008152
  113.77   78.44   -7.74   0.0007755
  117.01   78.86   -8.77   0.0007857
  120.88   79.97  -10.10   0.0008092
   62.64   77.80   66.65   0.0007739
   66.52   77.22   65.30   0.0007859
   91.21   65.77   -2.66   0.0010047
  115.20   70.14  -12.72   0.0010610
  118.50   70.73  -14.20   0.0010476
  121.91   71.90  -16.02   0.0010809
   61.59   68.86   70.56   0.0010781
   65.55   68.26   68.59   0.0009905
   91.40   57.27   -3.66   0.0007994
  -94.54   35.64   27.02   0.0007837
  -94.23   36.18   31.19   0.0008175
  -94.62   36.44   34.67   0.0008370
  -95.17   36.25   38.37   0.0008090
  -95.03   35.68   42.87   0.0008114
  -94.97   44.97    4.81   0.0003738
  -94.98   44.86   24.39   0.0003516
  -94.98   44.86   31.27   0.0003557
  -94.97   44.88   35.17   0.0003719
  -94.94   44.89   39.07   0.0003773
  -94.89   44.85   45.57   0.0003903
  -95.23   54.74    4.35   0.0001384
  -94.95   54.67   20.42   0.0001255
  -95.11   54.60   29.66   0.0001283
  -95.11   54.63   35.42   0.0001319
  -95.12   54.61   41.10   0.0001344
  -95.27   54.63   49.67   0.0001429
  -95.93   64.36    4.44   0.0000790
  -95.05   64.17   16.71   0.0000783
  -95.08   63.90   26.90   0.0000790
  -95.38   63.85   35.60   0.0000830
  -95.56   63.95   43.70   0.0000847
  -95.92   64.18   53.56   0.0000837
  -96.15   74.05    5.13   0.0000550
  -95.81   73.98   15.07   0.0000590
  -95.45   73.63   25.09   0.0000623
  -95.52   73.48   35.08   0.0000657
  -95.88   73.62   45.10   0.0000675
  -96.17   73.86   55.13   0.0000618
  -96.32   83.83    5.00   0.0000067
  -96.32   83.88   14.98   0.0000079
  -96.22   83.75   24.99   0.0000080
  -96.08   83.57   35.01   0.0000085
  -96.07   83.57   45.03   0.0000100
  -96.21   83.69   55.02   0.0000079
  113.22   86.84   -2.29   0.0002929
  116.52   86.75   -2.87   0.0002935
  120.62   87.28   -3.62   0.0002910
   63.36   87.38   64.11   0.0002944
   66.96   87.29   63.41   0.0002917
   90.20   87.57   60.58   0.0002861
  113.77   77.36   -5.36   0.0008199
  116.89   77.69   -6.38   0.0007812
  120.82   78.59   -7.83   0.0007831
   62.47   78.94   69.07   0.0008019
   66.38   78.25   67.75   0.0007682
   90.46   76.31   61.21   0.0007833
  114.71   68.41   -8.75   0.0010138
  117.87   68.78  -10.22   0.0010863
  121.46   69.68  -12.31   0.0010592
   61.00   70.95   74.46   0.0010626
   65.11   70.01   72.54   0.0010481
   91.48   65.74   61.46   0.0009796
  -85.02   35.67   17.39   0.0008025
  -84.87   36.32   21.22   0.0008109
  -85.41   36.44   24.84   0.0008377
  -85.79   36.13   28.38   0.0008227
  -85.54   35.69   33.33   0.0007701
   93.96   57.18   60.59   0.0007856
  -85.17   44.87   14.72   0.0003668
  -85.13   44.89   20.45   0.0003587
  -85.12   44.89   24.19   0.0003718
  -85.08   44.88   28.32   0.0003734
  -85.09   44.86   36.03   0.0003582
  -85.08   44.94   59.30   0.0003685
  -84.96   54.65   10.79   0.0001359
  -85.09   54.62   18.64   0.0001268
  -85.06   54.64   23.85   0.0001344
  -85.11   54.61   30.22   0.0001425
  -85.29   54.64   39.97   0.0001401
  -84.96   54.73   58.46   0.0001421
  -84.39   64.09    6.96   0.0000827
  -84.77   63.88   16.40   0.0000831
  -84.91   63.85   23.96   0.0000865
  -85.29   63.95   33.08   0.0000931
  -85.41   64.16   43.48   0.0000961
  -84.43   64.31   56.36   0.0000900
  -84.09   73.74    4.93   0.0000578
  -84.40   73.51   14.88   0.0000641
  -84.82   73.46   24.82   0.0000678
  -84.97   73.65   34.90   0.0000728
  -84.61   73.93   44.94   0.0000741
  -84.17   73.95   54.91   0.0000658
  -83.92   83.66    4.97   0.0000072
  -84.02   83.58   14.97   0.0000090
  -84.06   83.66   25.00   0.0000087
  -83.99   83.81   35.02   0.0000095
  -83.89   83.87   45.01   0.0000105
  -83.87   83.79   54.99   0.0000080
  116.56   86.50   -1.71   0.0002933
  120.65   86.87   -2.50   0.0002923
   63.43   88.13   65.04   0.0002904
   66.71   87.93   64.46   0.0002972
   90.20   87.78   61.78   0.0002924
  113.57   86.58   58.80   0.0002851
  117.05   76.00   -4.27   0.0008290
  120.70   77.68   -5.34   0.0007837
   62.20   79.81   71.53   0.0007736
   66.40   79.74   69.94   0.0007961
   90.31   76.88   63.91   0.0007642
  113.56   76.86   57.27   0.0007832
  117.03   67.52   -5.88   0.0010384
  120.82   68.26   -8.10   0.0011010
   60.74   73.61   77.87   0.0010430
   64.97   72.26   76.06   0.0010289
   92.25   65.22   65.31   0.0010221
  113.94   67.40   55.59   0.0009831
  -75.62   36.63   11.40   0.0008442
  -76.31   36.61   15.20   0.0008301
  -76.55   36.16   18.58   0.0008206
  -76.29   35.85   24.00   0.0007810
   95.70   57.45   65.28   0.0007425
  -75.50   35.87   67.80   0.0007951
  -75.28   44.84    9.80   0.0003940
  -75.26   44.82   13.32   0.0003821
  -75.21   44.79   17.53   0.0003801
  -75.28   44.81   26.49   0.0003583
  -75.20   44.86   53.33   0.0003459
  -75.35   44.80   65.20   0.0003722
  -75.10   54.69    7.55   0.0001422
  -75.06   54.67   12.42   0.0001379
  -75.10   54.65   19.31   0.0001474
  -75.19   54.72   31.20   0.0001518
  -74.92   54.69   51.50   0.0001462
  -75.10   54.67   61.52   0.0001494
  -74.56   64.18    5.23   0.0000890
  -74.64   64.16   12.52   0.0000916
  -74.93   64.26   22.32   0.0000994
  -74.42   64.61   34.87   0.0001076
  -74.15   64.55   47.59   0.0001068
  -74.43   64.27   57.61   0.0000972
  -74.04   73.91    4.62   0.0000692
  -74.13   74.12   14.60   0.0000786
  -73.87   74.62   24.85   0.0000838
  -73.61   74.67   34.90   0.0000888
  -73.60   74.42   44.98   0.0000906
  -73.81   74.09   54.93   0.0000773
  -73.41   84.41    5.01   0.0000156
  -73.38   84.67   15.06   0.0000189
  -73.34   84.67   25.06   0.0000185
  -73.35   84.49   35.03   0.0000207
  -73.42   84.27   44.98   0.0000229
  -73.45   84.18   54.96   0.0000186
  120.69   86.75   -1.27   0.0002923
   63.53   89.11   65.82   0.0002922
   66.43   88.86   65.34   0.0002923
   90.20   88.32   62.93   0.0002979
  114.06   86.61   59.90   0.0002909
  116.65   86.46   59.49   0.0002855
  120.57   77.32   -2.65   0.0008319
   62.13   81.09   73.57   0.0007731
   66.05   81.16   72.07   0.0007644
   90.14   78.05   66.49   0.0007910
  113.67   76.38   59.73   0.0007623
  117.03   74.92   57.97   0.0007892
  120.12   66.91   -4.14   0.0010564
   60.82   76.65   80.73   0.0010793
   65.23   75.03   79.03   0.0010032
   91.23   67.55   69.82   0.0010026
  113.08   67.14   60.12   0.0010256
  116.28   66.58   58.37   0.0010085
  119.49   58.23   -4.18   0.0008690
  -67.62   36.31    9.23   0.0008081
  -67.49   36.17   15.04   0.0007775
   95.48   58.39   70.96   0.0007534
  -66.18   36.27   58.43   0.0007596
  -66.68   37.11   62.04   0.0008484
  -65.60   44.89    2.93   0.0004174
  -65.40   44.69    6.85   0.0003778
  -65.75   44.95   17.22   0.0003606
  -65.38   44.88   46.11   0.0003505
  -65.50   44.73   55.71   0.0003603
  -65.51   44.96   59.46   0.0004041
  -65.09   54.58    1.21   0.0001456
  -65.11   54.58    8.19   0.0001414
  -65.17   54.64   23.40   0.0001494
  -65.07   54.55   43.47   0.0001553
  -65.22   54.61   52.16   0.0001549
  -65.15   54.63   56.78   0.0001558
  -64.76   64.50    1.23   0.0000879
  -64.92   64.57   11.34   0.0000967
  -64.53   64.74   27.62   0.0001048
  -64.60   64.59   39.57   0.0001102
  -64.76   64.50   48.27   0.0001074
  -64.73   64.52   54.11   0.0000943
  -64.31   74.59    3.83   0.0000720
  -63.99   75.08   15.10   0.0000843
  -63.86   74.92   25.92   0.0000915
  -63.95   74.60   36.00   0.0000947
  -64.03   74.39   44.83   0.0000905
  -64.17   74.32   53.58   0.0000767
  -63.76   85.17    5.09   0.0000379
  -63.65   85.05   15.08   0.0000478
  -63.64   84.78   25.02   0.0000479
  -63.73   84.49   34.93   0.0000522
  -63.80   84.47   44.90   0.0000565
  -63.84   84.91   55.02   0.0000476
   63.66   90.29   66.41   0.0002929
   66.03   90.36   65.92   0.0002938
   90.20   89.11   63.98   0.0002916
  114.58   87.26   61.07   0.0002974
  116.71   86.77   60.74   0.0002913
  120.74   86.89   60.00   0.0002843
   62.17   82.28   75.36   0.0008260
   65.72   82.62   73.91   0.0007633
   90.02   79.67   68.88   0.0007562
  113.96   75.77   61.89   0.0007900
  117.01   73.93   60.01   0.0007683
  120.47   77.55   60.15   0.0007922
   60.94   79.09   83.32   0.0010384
   65.18   77.93   81.71   0.0010369
   90.39   70.00   73.95   0.0009721
  112.53   67.17   64.32   0.0010130
  115.72   65.60   62.15   0.0010554
  119.39   65.72   59.41   0.0010232
   59.08   76.78   91.70   0.0008510
   64.37   73.45   89.72   0.0007652
   95.26   59.52   76.30   0.0007510
  -57.28   36.83   49.52   0.0007818
  113.61   57.95   65.20   0.0008119
  117.79   57.97   62.00   0.0008780
  -56.14   44.83   -3.04   0.0004157
  -57.07   45.60    8.22   0.0003634
  -55.85   45.39   37.92   0.0003581
  -55.89   45.12   46.30   0.0003821
  -56.29   45.55   49.90   0.0004060
  -56.60   45.29   53.57   0.0004321
  -55.05   54.37   -3.32   0.0001456
  -55.41   54.74   14.81   0.0001434
  -55.11   54.31   35.53   0.0001567
  -55.22   54.42   42.79   0.0001675
  -55.13   54.46   46.53   0.0001677
  -55.04   54.38   50.32   0.0001608
  -54.99   64.47    0.08   0.0000787
  -54.76   64.52   20.18   0.0000922
  -54.93   64.44   32.02   0.0001012
  -54.96   64.50   38.68   0.0001033
  -54.86   64.51   43.42   0.0000972
  -54.82   64.47   49.65   0.0000830
  -54.56   74.81    6.45   0.0000604
  -54.50   74.70   18.93   0.0000732
  -54.62   74.57   28.25   0.0000783
  -54.60   74.62   34.56   0.0000768
  -54.60   74.60   41.72   0.0000715
  -54.77   74.58   51.72   0.0000611
  -54.19   85.03    6.62   0.0000314
  -54.18   84.76   16.32   0.0000417
  -54.16   84.71   24.27   0.0000412
  -54.30   84.58   33.20   0.0000433
  -54.49   84.64   43.52   0.0000500
  -54.31   85.19   55.98   0.0000411
   65.89   92.71   66.02   0.0002952
   90.22   90.14   64.92   0.0002926
  114.97   88.86   62.45   0.0002889
  116.78   87.37   62.00   0.0002978
  120.79   87.30   61.29   0.0002899
  124.80   87.40   60.28   0.0002846
   65.62   84.33   75.28   0.0008142
   89.96   82.04   71.00   0.0007586
  114.10   75.93   64.09   0.0007562
  116.22   77.92   64.28   0.0007965
  120.40   78.07   62.82   0.0007724
   62.36   83.46  136.76   0.0007884
   64.99   80.63   83.93   0.0010002
   89.62   73.31   77.62   0.0010172
  112.25   67.13   67.96   0.0009813
  115.18   65.22   65.67   0.0010414
  118.68   65.20   62.77   0.0010757
   61.31   81.33  145.35   0.0010037
   64.56   77.79   92.56   0.0008098
  -51.09   39.87   31.06   0.0007484
  -48.91   37.40   41.24   0.0007819
  -50.48   38.34   45.52   0.0008425
  -51.87   37.78   50.16   0.0008444
  -51.28   36.78   52.55   0.0008618
  -49.18   46.22   -1.25   0.0004117
  -47.25   46.65   29.44   0.0003754
  -47.00   45.94   37.56   0.0004029
  -47.97   46.43   41.48   0.0004459
  -48.53   45.89   45.46   0.0004488
  -47.73   45.20   48.22   0.0004408
  -47.17   55.81    5.01   0.0001562
  -45.42   54.68   27.46   0.0001607
  -45.70   54.88   33.85   0.0001853
  -46.08   55.00   37.58   0.0001980
  -46.02   54.63   41.17   0.0001879
  -45.59   54.38   45.93   0.0001716
  -44.93   64.65   11.65   0.0000799
  -44.82   64.19   24.54   0.0000929
  -44.89   64.37   29.80   0.0001018
  -44.84   64.38   33.66   0.0001011
  -44.65   64.27   38.24   0.0000953
  -44.90   64.26   47.66   0.0000794
  -44.53   74.44   12.14   0.0000398
  -44.67   74.41   20.63   0.0000491
  -44.62   74.51   25.38   0.0000513
  -44.51   74.52   30.41   0.0000495
  -44.57   74.43   38.86   0.0000449
  -44.62   74.52   55.66   0.0000388
  -44.58   84.60    9.76   0.0000030
  -44.59   84.69   15.67   0.0000040
  -44.52   84.75   21.41   0.0000038
  -44.52   84.65   30.26   0.0000043
  -44.60   84.69   44.42   0.0000049
  -44.49   84.73   60.08   0.0000039
   90.24   91.35   65.71   0.0002938
  -16.32    5.18   11.46   0.0002894
  116.87   88.26   63.22   0.0002888
  120.86   87.98   62.57   0.0002971
  124.89   87.99   61.66   0.0002905
  -13.84    5.95   19.19   0.0002871
   90.02   84.76   72.76   0.0008099
  -46.33   18.83   41.19   0.0007603
  116.27   79.30   66.79   0.0007604
  120.43   79.26   65.50   0.0007951
   63.97   90.25  135.80   0.0007716
  -51.14   18.03   56.59   0.0007816
   89.25   77.56   80.62   0.0009870
  -43.87   28.93   37.74   0.0010287
  -46.64   30.06   43.14   0.0010018
  119.03   70.37   69.53   0.0010548
  -49.04   28.48   51.23   0.0010624
  -47.50   27.59   53.10   0.0009755
   88.69   70.33   88.50   0.0007998
  -40.98   37.86   33.53   0.0007750
  -43.12   38.72   38.33   0.0008447
  -44.71   38.00   43.17   0.0008801
  -43.98   36.91   45.40   0.0008332
  -43.72   36.66   49.66   0.0008333
  -40.18   48.39   21.13   0.0004289
  -38.84   46.77   29.69   0.0004205
  -40.50   47.31   34.12   0.0004727
  -41.41   46.49   38.56   0.0004936
  -40.18   45.59   40.65   0.0004549
  -41.51   46.27   48.84   0.0004401
  -37.14   56.22   19.17   0.0001848
  -37.33   55.96   25.94   0.0002024
  -38.45   56.03   30.17   0.0002355
  -38.59   55.29   34.05   0.0002359
  -37.59   54.74   37.32   0.0002097
  -40.22   56.54   52.47   0.0001894
  -35.62   65.05   16.84   0.0000965
  -36.26   65.39   22.03   0.0001145
  -36.79   65.09   26.21   0.0001218
  -36.24   64.56   29.75   0.0001178
  -36.14   64.43   35.93   0.0001092
  -37.83   66.34   60.52   0.0000939
  -34.89   74.66   13.80   0.0000470
  -35.44   74.97   17.94   0.0000583
  -35.37   74.63   22.05   0.0000596
  -34.89   74.41   27.06   0.0000559
  -36.27   74.81   40.20   0.0000535
  -35.14   75.06   64.61   0.0000460
  -34.64   84.80    9.56   0.0000020
  -34.75   84.80   13.64   0.0000032
  -34.39   84.69   18.45   0.0000027
  -34.62   84.55   27.49   0.0000027
  -35.19   85.13   50.07   0.0000032
  -34.40   84.66   63.80   0.0000023
    5.05    5.39   -9.88   0.0002901
  116.97   89.39   64.36   0.0002881
  120.95   88.90   63.80   0.0002886
 -117.00   94.50  -67.03   0.0002979
    4.78    6.55    0.67   0.0002934
  -91.05   97.60  -66.43   0.0002887
  -30.79   15.99   25.98   0.0008059
  116.47   81.40   69.17   0.0007601
  120.55   80.94   68.03   0.0007610
   64.62   93.35  135.82   0.0007931
  -34.46   15.77   40.01   0.0007762
   90.20   87.89  134.13   0.0007852
  -35.18   28.08   29.44   0.0009946
  114.76   73.40   75.17   0.0010414
  119.18   72.78   73.38   0.0010148
   64.88   92.62  145.49   0.0010392
  -38.57   26.70   44.13   0.0010509
   89.49   82.55  142.86   0.0009758
  -33.07   37.90   26.02   0.0008349
  -35.72   38.60   31.41   0.0008272
   61.86   95.37  155.51   0.0008819
  -36.92   36.76   38.70   0.0008720
  -35.66   36.19   41.23   0.0008123
   88.27   77.16  151.87   0.0008313
  -31.12   47.39   22.43   0.0004782
  -33.29   47.81   27.36   0.0004838
   62.44   96.07  165.27   0.0005194
  -33.35   45.82   34.15   0.0004997
  -33.47   45.79   39.24   0.0004520
   86.76   71.99  161.04   0.0004607
  -29.66   56.89   18.94   0.0002263
  -31.47   56.98   23.60   0.0002521
  -32.19   55.89   28.16   0.0002750
  -30.72   55.11   30.42   0.0002534
  -32.48   55.87   39.39   0.0002223
  -31.04   58.30   70.71   0.0002190
  -28.69   66.56   15.39   0.0001264
  -30.07   66.19   19.97   0.0001511
  -30.05   65.17   24.12   0.0001505
  -28.97   64.67   27.69   0.0001439
   71.99   78.44 -176.02   0.0001339
  -28.60   67.02   68.91   0.0001193
  -28.15   76.32   11.68   0.0000770
  -28.92   75.47   16.33   0.0000996
  -28.00   74.74   20.02   0.0001009
  -28.01   74.50   26.16   0.0000993
  -30.23   76.88   51.14   0.0000973
  -27.18   76.22   66.83   0.0000768
  -27.82   85.93    7.92   0.0000363
  -27.76   85.00   12.49   0.0000496
  -26.89   84.53   17.16   0.0000478
  -28.75   84.76   28.48   0.0000524
  -27.48   86.25   55.12   0.0000574
  -26.62   85.92   63.99   0.0000396
  117.14   90.75   65.39   0.0002884
  121.05   90.03   64.94   0.0002879
 -116.80   92.90  -66.74   0.0002912
   18.14    7.42  -12.60   0.0003011
  -91.06   95.90  -66.83   0.0002955
   21.63    6.03   33.56   0.0002876
  116.92   84.17   71.34   0.0008031
  120.80   83.27   70.43   0.0007611
  124.95   82.63   69.11   0.0007685
   -6.64   14.68   12.52   0.0007986
  -92.68   98.92  -75.37   0.0007838
   -6.02   13.97   61.52   0.0007868
  115.51   77.16   78.34   0.0010032
  119.62   76.06   76.94   0.0010476
   66.57   97.42  145.00   0.0010169
  -22.59   24.68   28.50   0.0010408
   90.30   88.17  144.35   0.0010636
  -19.02   25.05   74.14   0.0009902
  112.79   70.87   86.33   0.0008818
   64.18  101.43  155.06   0.0008558
   67.82   98.28  154.84   0.0008813
  -25.65   35.19   31.39   0.0008688
   89.55   84.93  153.88   0.0008386
  -22.94   36.68   76.75   0.0008775
  108.84   65.41   95.32   0.0005317
   66.09  103.22  164.76   0.0005240
   69.21   99.35  164.77   0.0005285
  -24.69   45.12   30.15   0.0005007
   88.34   81.82  163.59   0.0004774
  -22.65   47.22   74.79   0.0005124
  103.68   60.86  105.35   0.0002602
   68.32  104.89  174.57   0.0002790
   70.58  100.47  174.77   0.0002809
   74.83   93.41  174.78   0.0002591
   86.60   78.65  173.45   0.0002426
  -21.86   57.35   72.08   0.0002487
   97.38   57.41  116.47   0.0001452
   70.87  106.32 -175.28   0.0001687
  -22.50   64.89   21.46   0.0001626
   76.59   90.83 -175.12   0.0001516
   84.47   75.56 -176.54   0.0001438
  -21.18   67.34   69.20   0.0001346
   90.28   55.24  128.51   0.0000953
   73.56  107.49 -164.90   0.0001190
  -21.34   74.59   18.80   0.0001233
   77.45   88.15 -165.13   0.0001247
   81.89   72.50 -166.40   0.0001169
  -20.76   77.26   66.17   0.0000924
   82.81   54.40  141.00   0.0000646
   76.36  108.61 -154.35   0.0000909
  -20.65   84.30   16.52   0.0000889
   77.37   86.06 -155.17   0.0000984
   78.55   69.63 -155.96   0.0001018
  -20.69   87.15   62.92   0.0000670
 -120.76   91.19  -66.02   0.0002874
 -116.62   91.31  -66.24   0.0002901
   27.96    8.32  -22.32   0.0002957
  -91.03   94.18  -67.01   0.0003038
   33.84    6.84   21.36   0.0002947
   41.80    7.76   16.15   0.0002859
  121.16   86.12   72.64   0.0008049
 -116.37   88.74  -74.27   0.0007731
   10.87   15.64   -4.64   0.0007876
  -92.36   95.02  -75.71   0.0008099
   11.98   14.21   43.66   0.0007844
   17.08   14.45   41.42   0.0007880
   63.80  104.59  143.80   0.0010085
  124.87   78.63   78.52   0.0010617
    3.91   24.44    3.06   0.0010409
  -93.83   95.78  -85.43   0.0010636
    4.75   23.32   51.20   0.0010831
  -66.56  106.84  -81.70   0.0009926
   66.44  107.70  153.75   0.0008974
   70.80  104.64  153.74   0.0008652
   -0.47   33.77    8.17   0.0008936
  -95.26   96.24  -95.38   0.0009100
    1.05   33.09   54.94   0.0008815
  -69.80  111.50  -90.86   0.0009129
   69.70  110.55  164.11   0.0005543
   73.73  106.35  163.98   0.0005322
   -5.03   43.53   12.97   0.0005357
  -96.61   96.41 -105.41   0.0005311
  -81.11  109.60 -103.12   0.0005272
  -74.32  115.36 -100.96   0.0005533
   73.55  112.91  174.74   0.0002742
   76.97  107.70  174.42   0.0002785
   80.31  102.62  174.58   0.0002796
  -97.91   96.37 -115.47   0.0002712
  -86.43  110.72 -114.07   0.0002618
 -117.90   69.06  -48.77   0.0002667
   77.92  114.73 -174.51   0.0001438
   80.41  108.64 -175.03   0.0001600
   83.34  101.84 -175.04   0.0001494
   91.44   88.63 -175.33   0.0001408
  -91.73  110.83 -125.13   0.0001403
 -114.44   64.75  -58.06   0.0001334
  101.08   56.67  128.49   0.0000903
   83.98  109.12 -164.48   0.0001151
   85.95  100.85 -164.76   0.0001115
   90.85   87.37 -165.37   0.0001119
   95.05   72.08 -167.18   0.0001076
   98.25   62.61 -169.60   0.0000829
   94.15   54.64  140.67   0.0000709
   87.48  109.24 -153.99   0.0000980
   88.07   99.90 -154.59   0.0000983
   89.94   86.14 -155.37   0.0001044
   91.14   70.77 -156.57   0.0001018
   92.61   61.38 -158.17   0.0000683
