   STRAIN    AVACS    MODE1    MODE2    MODE3
   0.0000   3.7286   0.2323   0.7669   0.0008
   0.0367   3.7250   0.2192   0.7799   0.0009
   0.0730   3.6984   0.2088   0.7902   0.0010
   0.1084   3.6672   0.1993   0.7996   0.0011
   0.1426   3.6249   0.1900   0.8088   0.0012
   0.1756   3.6166   0.1814   0.8174   0.0012
   0.2072   3.5925   0.1733   0.8254   0.0013
   0.2373   3.5841   0.1658   0.8328   0.0014
   0.2661   3.5758   0.1588   0.8397   0.0015
   0.2934   3.5546   0.1527   0.8458   0.0016
   0.3194   3.5391   0.1467   0.8516   0.0017
   0.3441   3.5409   0.1413   0.8570   0.0017
   0.3675   3.5197   0.1362   0.8619   0.0018
   0.3899   3.5081   0.1316   0.8665   0.0019
   0.4111   3.4969   0.1274   0.8707   0.0020
   0.4313   3.4900   0.1234   0.8745   0.0020
   0.4505   3.4805   0.1198   0.8781   0.0021
   0.4688   3.4749   0.1165   0.8813   0.0022
   0.4863   3.4662   0.1134   0.8844   0.0022
   0.5029   3.4457   0.1105   0.8872   0.0023
   0.5188   3.4410   0.1078   0.8898   0.0023
   0.5341   3.4450   0.1053   0.8923   0.0024
   0.5486   3.4350   0.1029   0.8947   0.0024
   0.5626   3.4261   0.1007   0.8969   0.0025
   0.5761   3.4362   0.0986   0.8990   0.0025
   0.5890   3.4297   0.0965   0.9009   0.0025
   0.6015   3.4153   0.0946   0.9028   0.0026
   0.6136   3.4052   0.0928   0.9046   0.0026
   0.6253   3.3814   0.0910   0.9063   0.0026
   0.6366   3.3770   0.0894   0.9080   0.0027
   0.6476   3.3628   0.0878   0.9095   0.0027
   0.6582   3.3618   0.0863   0.9110   0.0027
   0.6686   3.3534   0.0848   0.9124   0.0028
   0.6786   3.3437   0.0835   0.9138   0.0028
   0.6884   3.3310   0.0821   0.9150   0.0028
   0.6979   3.3271   0.0809   0.9163   0.0028
   0.7071   3.3243   0.0797   0.9174   0.0029
   0.7162   3.3157   0.0786   0.9185   0.0029
   0.7250   3.3095   0.0775   0.9196   0.0029
   0.7335   3.2901   0.0764   0.9206   0.0030
   0.7419   3.2797   0.0754   0.9216   0.0030
   0.7500   3.2793   0.0745   0.9225   0.0030
   0.7580   3.2716   0.0735   0.9234   0.0030
   0.7658   3.2721   0.0727   0.9243   0.0031
   0.7734   3.2573   0.0718   0.9251   0.0031
   0.7808   3.2512   0.0710   0.9259   0.0031
   0.7880   3.2471   0.0702   0.9267   0.0031
   0.7951   3.2429   0.0694   0.9274   0.0032
   0.8021   3.2263   0.0687   0.9281   0.0032
   0.8088   3.2126   0.0680   0.9288   0.0032
   0.8155   3.2048   0.0673   0.9294   0.0032
   0.8219   3.1994   0.0666   0.9301   0.0033
   0.8283   3.2031   0.0660   0.9307   0.0033
   0.8345   3.1963   0.0654   0.9313   0.0033
   0.8406   3.1910   0.0648   0.9319   0.0033
   0.8466   3.1860   0.0642   0.9325   0.0034
   0.8524   3.1736   0.0636   0.9330   0.0034
   0.8582   3.1728   0.0630   0.9336   0.0034
   0.8638   3.1606   0.0625   0.9341   0.0034
   0.8693   3.1508   0.0620   0.9346   0.0034
   0.8748   3.1527   0.0613   0.9352   0.0035
   0.8801   3.1487   0.0608   0.9357   0.0035
   0.8853   3.1445   0.0603   0.9362   0.0035
   0.8904   3.1416   0.0598   0.9367   0.0035
   0.8955   3.1411   0.0593   0.9371   0.0036
   0.9004   3.1383   0.0588   0.9376   0.0036
   0.9053   3.1310   0.0584   0.9380   0.0036
   0.9101   3.1308   0.0579   0.9384   0.0036
   0.9148   3.1278   0.0575   0.9389   0.0036
   0.9195   3.1233   0.0571   0.9393   0.0037
   0.9240   3.1228   0.0567   0.9397   0.0037
   0.9285   3.1152   0.0562   0.9401   0.0037
   0.9329   3.1119   0.0558   0.9404   0.0037
   0.9373   3.1046   0.0554   0.9408   0.0037
   0.9416   3.1106   0.0555   0.9411   0.0034
   0.9462   3.1070   0.0551   0.9414   0.0034
   0.9507   3.1064   0.0548   0.9418   0.0034
   0.9552   3.1130   0.0544   0.9422   0.0034
   0.9597   3.1123   0.0541   0.9425   0.0034
   0.9641   3.1013   0.0537   0.9428   0.0034
   0.9685   3.0952   0.0534   0.9432   0.0034
   0.9729   3.0941   0.0531   0.9435   0.0034
   0.9772   3.0923   0.0527   0.9438   0.0034
   0.9815   3.0833   0.0524   0.9442   0.0034
   0.9857   3.0722   0.0521   0.9445   0.0034
   0.9899   3.0725   0.0517   0.9449   0.0034
   0.9941   3.0650   0.0513   0.9452   0.0034
   0.9982   3.0655   0.0510   0.9455   0.0034
   1.0023   3.0645   0.0507   0.9458   0.0034
   1.0064   3.0635   0.0504   0.9461   0.0034
   1.0104   3.0636   0.0501   0.9464   0.0034
   1.0144   3.0602   0.0499   0.9467   0.0034
   1.0184   3.0521   0.0496   0.9470   0.0034
   1.0223   3.0439   0.0493   0.9473   0.0034
   1.0262   3.0406   0.0490   0.9476   0.0034
   1.0301   3.0353   0.0487   0.9478   0.0034
   1.0339   3.0312   0.0485   0.9481   0.0034
   1.0377   3.0295   0.0481   0.9485   0.0034
   1.0415   3.0287   0.0478   0.9488   0.0034
   1.0453   3.0249   0.0475   0.9490   0.0034
   1.0490   3.0209   0.0473   0.9493   0.0034
   1.0527   3.0132   0.0470   0.9495   0.0034
   1.0564   3.0128   0.0468   0.9498   0.0034
   1.0600   3.0124   0.0465   0.9500   0.0034
   1.0636   3.0018   0.0463   0.9503   0.0034
   1.0672   3.0014   0.0460   0.9505   0.0034
   1.0708   2.9983   0.0458   0.9508   0.0034
   1.0743   2.9980   0.0456   0.9510   0.0034
   1.0778   2.9950   0.0453   0.9512   0.0034
   1.0813   2.9982   0.0450   0.9516   0.0034
   1.0848   3.0011   0.0448   0.9518   0.0034
   1.0882   2.9982   0.0445   0.9520   0.0034
   1.0916   2.9956   0.0443   0.9523   0.0034
   1.0950   2.9980   0.0441   0.9525   0.0034
   1.0984   2.9897   0.0439   0.9527   0.0034
   1.1017   2.9877   0.0436   0.9529   0.0034
   1.1050   2.9821   0.0434   0.9531   0.0034
   1.1083   2.9817   0.0432   0.9533   0.0034
   1.1116   2.9789   0.0430   0.9536   0.0034
   1.1149   2.9793   0.0428   0.9538   0.0035
   1.1181   2.9789   0.0426   0.9540   0.0035
   1.1213   2.9785   0.0424   0.9542   0.0035
   1.1245   2.9827   0.0421   0.9545   0.0035
   1.1276   2.9784   0.0419   0.9547   0.0035
   1.1308   2.9651   0.0417   0.9549   0.0035
   1.1339   2.9599   0.0415   0.9551   0.0035
   1.1370   2.9569   0.0413   0.9552   0.0035
   1.1400   2.9434   0.0411   0.9554   0.0035
   1.1431   2.9379   0.0409   0.9556   0.0035
   1.1461   2.9246   0.0407   0.9558   0.0035
   1.1491   2.9222   0.0405   0.9560   0.0035
   1.1521   2.9095   0.0403   0.9562   0.0035
   1.1551   2.9040   0.0402   0.9563   0.0035
   1.1580   2.9010   0.0400   0.9565   0.0035
   1.1610   2.8956   0.0398   0.9567   0.0035
   1.1639   2.8924   0.0396   0.9568   0.0035
   1.1668   2.8921   0.0395   0.9570   0.0035
   1.1696   2.8887   0.0392   0.9573   0.0035
   1.1725   2.8885   0.0390   0.9574   0.0035
   1.1753   2.8878   0.0389   0.9576   0.0035
   1.1781   2.8876   0.0387   0.9578   0.0035
   1.1809   2.8873   0.0385   0.9579   0.0035
   1.1837   2.8881   0.0384   0.9581   0.0035
   1.1864   2.8866   0.0382   0.9582   0.0036
   1.1892   2.8769   0.0380   0.9584   0.0036
   1.1919   2.8754   0.0379   0.9586   0.0036
   1.1946   2.8724   0.0377   0.9587   0.0036
   1.1973   2.8721   0.0376   0.9588   0.0036
   1.1999   2.8725   0.0374   0.9590   0.0036
   1.2026   2.8722   0.0373   0.9591   0.0036
   1.2052   2.8728   0.0371   0.9593   0.0036
   1.2078   2.8697   0.0370   0.9594   0.0036
   1.2104   2.8634   0.0368   0.9595   0.0036
   1.2130   2.8605   0.0367   0.9597   0.0036
   1.2155   2.8525   0.0365   0.9599   0.0036
   1.2181   2.8421   0.0363   0.9601   0.0036
   1.2206   2.8413   0.0362   0.9602   0.0036
   1.2231   2.8304   0.0360   0.9603   0.0036
   1.2256   2.8222   0.0359   0.9605   0.0037
   1.2281   2.8192   0.0358   0.9606   0.0037
   1.2306   2.8110   0.0356   0.9607   0.0037
   1.2330   2.8075   0.0355   0.9608   0.0037
   1.2354   2.8020   0.0354   0.9610   0.0037
   1.2378   2.8026   0.0352   0.9611   0.0037
   1.2402   2.8044   0.0351   0.9612   0.0037
   1.2426   2.7999   0.0350   0.9613   0.0037
   1.2450   2.7969   0.0348   0.9614   0.0037
   1.2473   2.7930   0.0347   0.9615   0.0037
   1.2497   2.7876   0.0346   0.9617   0.0037
   1.2520   2.7848   0.0345   0.9618   0.0037
   1.2543   2.7770   0.0344   0.9619   0.0038
   1.2566   2.7768   0.0342   0.9620   0.0038
   1.2589   2.7762   0.0341   0.9621   0.0038
   1.2611   2.7765   0.0340   0.9622   0.0038
   1.2634   2.7774   0.0339   0.9623   0.0038
   1.2656   2.7758   0.0337   0.9625   0.0038
   1.2678   2.7757   0.0336   0.9626   0.0038
   1.2700   2.7702   0.0335   0.9627   0.0038
   1.2722   2.7673   0.0334   0.9628   0.0038
   1.2744   2.7645   0.0333   0.9629   0.0038
   1.2766   2.7587   0.0331   0.9630   0.0038
   1.2787   2.7557   0.0330   0.9631   0.0039
   1.2809   2.7500   0.0329   0.9632   0.0039
   1.2830   2.7525   0.0328   0.9633   0.0039
   1.2851   2.7466   0.0327   0.9634   0.0039
   1.2872   2.7437   0.0326   0.9635   0.0039
   1.2893   2.7408   0.0325   0.9636   0.0039
   1.2913   2.7379   0.0324   0.9637   0.0039
   1.2934   2.7323   0.0323   0.9638   0.0039
   1.2954   2.7321   0.0322   0.9639   0.0039
   1.2975   2.7319   0.0321   0.9639   0.0039
   1.2995   2.7317   0.0320   0.9640   0.0040
   1.3015   2.7263   0.0319   0.9641   0.0040
   1.3035   2.7227   0.0318   0.9642   0.0040
   1.3055   2.7225   0.0317   0.9643   0.0040
   1.3075   2.7184   0.0317   0.9643   0.0040
   1.3094   2.7156   0.0316   0.9644   0.0040
   1.3114   2.7101   0.0315   0.9645   0.0040
   1.3133   2.7073   0.0314   0.9646   0.0040
   1.3152   2.7085   0.0313   0.9647   0.0040
   1.3171   2.7057   0.0312   0.9647   0.0040
   1.3191   2.7002   0.0311   0.9648   0.0041
   1.3209   2.7000   0.0311   0.9649   0.0041
   1.3228   2.6956   0.0309   0.9650   0.0041
   1.3247   2.6929   0.0308   0.9651   0.0041
   1.3266   2.6927   0.0307   0.9652   0.0041
   1.3284   2.6844   0.0306   0.9653   0.0041
   1.3302   2.6815   0.0306   0.9653   0.0041
   1.3321   2.6771   0.0305   0.9654   0.0041
   1.3339   2.6743   0.0304   0.9655   0.0041
   1.3357   2.6646   0.0303   0.9655   0.0042
   1.3375   2.6589   0.0302   0.9656   0.0042
   1.3393   2.6587   0.0302   0.9657   0.0042
   1.3410   2.6585   0.0301   0.9657   0.0042
   1.3428   2.6577   0.0300   0.9658   0.0042
   1.3446   2.6548   0.0299   0.9659   0.0042
   1.3463   2.6546   0.0299   0.9659   0.0042
   1.3480   2.6545   0.0298   0.9660   0.0042
   1.3498   2.6535   0.0297   0.9660   0.0042
   1.3515   2.6427   0.0296   0.9661   0.0043
   1.3532   2.6400   0.0296   0.9662   0.0043
   1.3549   2.6393   0.0295   0.9662   0.0043
   1.3565   2.6392   0.0294   0.9663   0.0043
   1.3582   2.6390   0.0294   0.9663   0.0043
   1.3599   2.6369   0.0293   0.9664   0.0043
   1.3615   2.6339   0.0292   0.9664   0.0043
   1.3632   2.6337   0.0292   0.9665   0.0043
   1.3648   2.6336   0.0291   0.9665   0.0044
   1.3665   2.6307   0.0290   0.9666   0.0044
   1.3681   2.6223   0.0290   0.9666   0.0044
   1.3697   2.6191   0.0289   0.9667   0.0044
   1.3713   2.6149   0.0289   0.9667   0.0044
   1.3729   2.6147   0.0288   0.9668   0.0044
   1.3745   2.6136   0.0287   0.9668   0.0044
   1.3761   2.6134   0.0287   0.9669   0.0044
   1.3776   2.6133   0.0286   0.9669   0.0045
   1.3792   2.6131   0.0286   0.9670   0.0045
   1.3807   2.6096   0.0285   0.9670   0.0045
   1.3823   2.6095   0.0284   0.9671   0.0045
   1.3838   2.6094   0.0284   0.9671   0.0045
   1.3854   2.5998   0.0283   0.9672   0.0045
   1.3869   2.5971   0.0283   0.9672   0.0045
   1.3884   2.5950   0.0282   0.9672   0.0045
   1.3899   2.5902   0.0281   0.9674   0.0045
   1.3914   2.5918   0.0280   0.9674   0.0046
   1.3929   2.5917   0.0280   0.9675   0.0046
   1.3944   2.5916   0.0279   0.9675   0.0046
   1.3959   2.5888   0.0279   0.9675   0.0046
   1.3973   2.5880   0.0278   0.9676   0.0046
   1.3988   2.5839   0.0278   0.9676   0.0046
   1.4002   2.5837   0.0277   0.9677   0.0046
