   STRAIN    AVACS    MODE1    MODE2    MODE3
   0.0000   4.0394   0.3287   0.6685   0.0028
   0.0168   4.0555   0.3244   0.6726   0.0030
   0.0331   4.0555   0.3204   0.6764   0.0032
   0.0488   4.0511   0.3165   0.6801   0.0034
   0.0641   4.0474   0.3127   0.6837   0.0036
   0.0789   4.0539   0.3091   0.6871   0.0038
   0.0932   4.0528   0.3056   0.6905   0.0040
   0.1070   4.0480   0.3022   0.6937   0.0042
   0.1205   4.0522   0.2989   0.6968   0.0044
   0.1334   4.0514   0.2957   0.6998   0.0046
   0.1460   4.0468   0.2926   0.7027   0.0047
   0.1582   4.0405   0.2896   0.7054   0.0049
   0.1700   4.0354   0.2867   0.7081   0.0051
   0.1815   4.0339   0.2840   0.7107   0.0053
   0.1926   4.0505   0.2814   0.7131   0.0055
   0.2034   4.0617   0.2787   0.7156   0.0057
   0.2139   4.0619   0.2762   0.7179   0.0059
   0.2241   4.0560   0.2738   0.7202   0.0060
   0.2340   4.0609   0.2714   0.7224   0.0062
   0.2436   4.0557   0.2691   0.7245   0.0064
   0.2530   4.0597   0.2669   0.7265   0.0066
   0.2622   4.0640   0.2648   0.7285   0.0067
   0.2711   4.0547   0.2627   0.7304   0.0069
   0.2797   4.0611   0.2607   0.7322   0.0071
   0.2882   4.0685   0.2587   0.7341   0.0072
   0.2965   4.0627   0.2568   0.7358   0.0074
   0.3045   4.0615   0.2550   0.7375   0.0075
   0.3124   4.0608   0.2532   0.7392   0.0077
   0.3201   4.0532   0.2514   0.7408   0.0078
   0.3277   4.0603   0.2497   0.7423   0.0080
   0.3351   4.0587   0.2480   0.7439   0.0081
   0.3423   4.0616   0.2464   0.7453   0.0082
   0.3494   4.0741   0.2448   0.7468   0.0084
   0.3563   4.0783   0.2433   0.7482   0.0085
   0.3631   4.0715   0.2418   0.7496   0.0087
   0.3698   4.0856   0.2403   0.7509   0.0088
   0.3763   4.0870   0.2389   0.7522   0.0089
   0.3828   4.0894   0.2375   0.7535   0.0090
   0.3891   4.0932   0.2362   0.7547   0.0092
   0.3952   4.0949   0.2348   0.7559   0.0093
   0.4013   4.0946   0.2335   0.7571   0.0094
   0.4073   4.0953   0.2323   0.7582   0.0095
   0.4132   4.1043   0.2311   0.7593   0.0096
   0.4189   4.1060   0.2298   0.7604   0.0097
   0.4246   4.1053   0.2287   0.7615   0.0099
   0.4302   4.1102   0.2275   0.7625   0.0100
   0.4357   4.1082   0.2264   0.7635   0.0101
   0.4411   4.1069   0.2253   0.7645   0.0102
   0.4464   4.1126   0.2242   0.7655   0.0103
   0.4516   4.1134   0.2232   0.7665   0.0104
   0.4568   4.1149   0.2221   0.7674   0.0105
   0.4619   4.1075   0.2211   0.7683   0.0106
   0.4669   4.1034   0.2201   0.7692   0.0107
   0.4718   4.1063   0.2191   0.7701   0.0107
   0.4767   4.1084   0.2182   0.7710   0.0108
   0.4814   4.1091   0.2172   0.7718   0.0109
   0.4862   4.1095   0.2163   0.7727   0.0110
   0.4908   4.1096   0.2154   0.7735   0.0111
   0.4954   4.1130   0.2145   0.7743   0.0112
   0.5000   4.1223   0.2136   0.7751   0.0113
   0.5044   4.1204   0.2128   0.7759   0.0113
   0.5089   4.1194   0.2119   0.7767   0.0114
   0.5132   4.1242   0.2111   0.7774   0.0115
   0.5175   4.1245   0.2103   0.7782   0.0116
   0.5218   4.1248   0.2095   0.7789   0.0116
   0.5260   4.1253   0.2087   0.7796   0.0117
   0.5302   4.1340   0.2079   0.7804   0.0118
   0.5343   4.1287   0.2071   0.7811   0.0118
   0.5383   4.1309   0.2063   0.7818   0.0119
   0.5423   4.1361   0.2056   0.7825   0.0120
   0.5463   4.1363   0.2048   0.7831   0.0120
   0.5502   4.1368   0.2041   0.7838   0.0121
   0.5541   4.1429   0.2034   0.7845   0.0121
   0.5580   4.1424   0.2027   0.7851   0.0122
   0.5617   4.1477   0.2020   0.7858   0.0123
   0.5655   4.1475   0.2013   0.7864   0.0123
   0.5692   4.1435   0.2006   0.7870   0.0124
   0.5729   4.1446   0.1999   0.7877   0.0124
   0.5766   4.1534   0.1992   0.7883   0.0125
   0.5802   4.1533   0.1986   0.7889   0.0125
   0.5837   4.1537   0.1979   0.7895   0.0126
   0.5873   4.1578   0.1973   0.7901   0.0126
   0.5908   4.1562   0.1966   0.7907   0.0127
   0.5943   4.1616   0.1960   0.7913   0.0127
   0.5977   4.1644   0.1954   0.7919   0.0128
   0.6011   4.1623   0.1948   0.7924   0.0128
   0.6045   4.1645   0.1941   0.7930   0.0128
   0.6079   4.1646   0.1935   0.7936   0.0129
   0.6112   4.1630   0.1929   0.7941   0.0129
   0.6145   4.1645   0.1923   0.7947   0.0130
   0.6178   4.1646   0.1918   0.7952   0.0130
   0.6210   4.1646   0.1912   0.7958   0.0130
   0.6242   4.1699   0.1906   0.7963   0.0131
   0.6274   4.1686   0.1900   0.7968   0.0131
   0.6306   4.1733   0.1895   0.7974   0.0132
   0.6337   4.1773   0.1889   0.7979   0.0132
   0.6368   4.1824   0.1884   0.7984   0.0132
   0.6399   4.1820   0.1878   0.7989   0.0133
   0.6430   4.1807   0.1873   0.7994   0.0133
   0.6460   4.1807   0.1868   0.7999   0.0133
   0.6490   4.1803   0.1862   0.8004   0.0134
   0.6520   4.1855   0.1857   0.8009   0.0134
   0.6550   4.1854   0.1852   0.8014   0.0134
   0.6580   4.1854   0.1847   0.8018   0.0135
   0.6609   4.1854   0.1842   0.8023   0.0135
   0.6638   4.1853   0.1838   0.8026   0.0136
   0.6667   4.1778   0.1833   0.8031   0.0136
   0.6696   4.1758   0.1828   0.8036   0.0136
   0.6724   4.1757   0.1823   0.8040   0.0137
   0.6752   4.1752   0.1818   0.8045   0.0137
   0.6781   4.1752   0.1814   0.8049   0.0137
   0.6808   4.1774   0.1809   0.8053   0.0138
   0.6836   4.1778   0.1804   0.8058   0.0138
   0.6864   4.1820   0.1800   0.8062   0.0138
   0.6891   4.1840   0.1795   0.8066   0.0138
   0.6918   4.1839   0.1791   0.8071   0.0139
   0.6945   4.1834   0.1786   0.8075   0.0139
   0.6972   4.1793   0.1782   0.8079   0.0139
   0.6999   4.1792   0.1778   0.8083   0.0140
   0.7025   4.1772   0.1773   0.8087   0.0140
   0.7052   4.1752   0.1769   0.8091   0.0140
   0.7078   4.1768   0.1765   0.8095   0.0140
   0.7104   4.1793   0.1761   0.8099   0.0141
   0.7130   4.1792   0.1756   0.8103   0.0141
   0.7155   4.1728   0.1752   0.8107   0.0141
   0.7181   4.1727   0.1748   0.8110   0.0141
   0.7207   4.1725   0.1744   0.8114   0.0142
   0.7232   4.1686   0.1740   0.8118   0.0142
   0.7257   4.1671   0.1736   0.8122   0.0142
   0.7282   4.1646   0.1732   0.8125   0.0142
   0.7307   4.1650   0.1729   0.8129   0.0143
   0.7331   4.1691   0.1725   0.8132   0.0143
   0.7356   4.1666   0.1721   0.8136   0.0143
   0.7380   4.1654   0.1717   0.8140   0.0143
   0.7405   4.1627   0.1714   0.8143   0.0143
   0.7429   4.1625   0.1710   0.8147   0.0144
   0.7453   4.1647   0.1706   0.8150   0.0144
   0.7477   4.1670   0.1703   0.8153   0.0144
   0.7501   4.1667   0.1699   0.8157   0.0144
   0.7524   4.1666   0.1695   0.8160   0.0145
   0.7548   4.1627   0.1692   0.8163   0.0145
   0.7571   4.1605   0.1688   0.8167   0.0145
   0.7594   4.1581   0.1685   0.8170   0.0145
   0.7618   4.1580   0.1682   0.8173   0.0145
   0.7641   4.1582   0.1678   0.8176   0.0146
   0.7664   4.1599   0.1675   0.8179   0.0146
   0.7686   4.1597   0.1671   0.8183   0.0146
   0.7709   4.1605   0.1668   0.8186   0.0146
   0.7731   4.1603   0.1665   0.8189   0.0146
   0.7754   4.1624   0.1662   0.8192   0.0147
   0.7776   4.1622   0.1658   0.8195   0.0147
   0.7798   4.1584   0.1655   0.8198   0.0147
   0.7821   4.1582   0.1652   0.8201   0.0147
   0.7842   4.1592   0.1649   0.8204   0.0147
   0.7864   4.1590   0.1646   0.8207   0.0148
   0.7886   4.1588   0.1643   0.8210   0.0148
   0.7908   4.1591   0.1639   0.8212   0.0148
   0.7929   4.1620   0.1636   0.8215   0.0148
   0.7951   4.1618   0.1633   0.8218   0.0148
   0.7972   4.1579   0.1630   0.8221   0.0149
   0.7993   4.1562   0.1627   0.8224   0.0149
   0.8014   4.1523   0.1624   0.8227   0.0149
   0.8035   4.1516   0.1622   0.8229   0.0149
   0.8056   4.1514   0.1619   0.8232   0.0149
   0.8077   4.1485   0.1616   0.8235   0.0150
   0.8098   4.1477   0.1613   0.8237   0.0150
   0.8118   4.1476   0.1610   0.8240   0.0150
   0.8139   4.1460   0.1607   0.8243   0.0150
   0.8159   4.1443   0.1604   0.8245   0.0150
   0.8180   4.1462   0.1602   0.8248   0.0150
   0.8200   4.1461   0.1599   0.8251   0.0151
   0.8220   4.1444   0.1596   0.8253   0.0151
   0.8240   4.1447   0.1593   0.8256   0.0151
   0.8260   4.1386   0.1591   0.8258   0.0151
   0.8280   4.1385   0.1588   0.8261   0.0151
   0.8300   4.1333   0.1585   0.8263   0.0152
   0.8319   4.1346   0.1583   0.8266   0.0152
   0.8339   4.1344   0.1580   0.8268   0.0152
   0.8358   4.1355   0.1577   0.8271   0.0152
   0.8378   4.1331   0.1575   0.8273   0.0152
   0.8397   4.1330   0.1572   0.8276   0.0152
   0.8416   4.1323   0.1569   0.8278   0.0153
   0.8435   4.1305   0.1567   0.8280   0.0153
   0.8454   4.1308   0.1564   0.8283   0.0153
   0.8473   4.1281   0.1562   0.8285   0.0153
   0.8492   4.1275   0.1559   0.8288   0.0153
   0.8511   4.1257   0.1557   0.8290   0.0153
   0.8530   4.1234   0.1554   0.8292   0.0154
   0.8548   4.1237   0.1552   0.8295   0.0154
   0.8567   4.1235   0.1549   0.8297   0.0154
   0.8585   4.1234   0.1547   0.8299   0.0154
   0.8604   4.1227   0.1544   0.8301   0.0154
   0.8622   4.1221   0.1542   0.8304   0.0154
   0.8640   4.1230   0.1540   0.8306   0.0154
   0.8658   4.1228   0.1537   0.8308   0.0155
   0.8676   4.1212   0.1535   0.8310   0.0155
   0.8694   4.1215   0.1532   0.8313   0.0155
   0.8712   4.1192   0.1529   0.8316   0.0155
   0.8730   4.1191   0.1527   0.8318   0.0155
   0.8748   4.1193   0.1525   0.8320   0.0155
   0.8766   4.1191   0.1522   0.8323   0.0155
   0.8784   4.1210   0.1520   0.8325   0.0155
   0.8801   4.1204   0.1518   0.8327   0.0155
   0.8819   4.1207   0.1515   0.8329   0.0156
   0.8836   4.1199   0.1513   0.8331   0.0156
   0.8854   4.1222   0.1511   0.8333   0.0156
   0.8871   4.1208   0.1509   0.8335   0.0156
   0.8888   4.1206   0.1506   0.8337   0.0156
   0.8905   4.1205   0.1504   0.8340   0.0156
   0.8922   4.1203   0.1502   0.8342   0.0156
   0.8939   4.1202   0.1500   0.8344   0.0157
   0.8956   4.1200   0.1497   0.8346   0.0157
   0.8973   4.1174   0.1495   0.8348   0.0157
   0.8990   4.1152   0.1493   0.8350   0.0157
   0.9007   4.1151   0.1491   0.8352   0.0157
   0.9024   4.1109   0.1489   0.8354   0.0157
   0.9040   4.1107   0.1487   0.8356   0.0157
   0.9057   4.1087   0.1484   0.8358   0.0158
   0.9073   4.1085   0.1482   0.8360   0.0158
   0.9090   4.1084   0.1480   0.8362   0.0158
   0.9106   4.1062   0.1478   0.8364   0.0158
   0.9123   4.1060   0.1476   0.8366   0.0158
   0.9139   4.1054   0.1474   0.8368   0.0158
   0.9155   4.1078   0.1472   0.8370   0.0158
   0.9171   4.1082   0.1470   0.8372   0.0158
   0.9187   4.1080   0.1468   0.8374   0.0159
   0.9203   4.1078   0.1466   0.8376   0.0159
   0.9219   4.1076   0.1464   0.8378   0.0159
   0.9235   4.1074   0.1461   0.8380   0.0159
   0.9251   4.1057   0.1459   0.8381   0.0159
   0.9267   4.1040   0.1457   0.8383   0.0159
   0.9283   4.1040   0.1455   0.8385   0.0159
   0.9298   4.1038   0.1453   0.8387   0.0159
   0.9314   4.1015   0.1451   0.8389   0.0160
   0.9329   4.0993   0.1449   0.8391   0.0160
   0.9345   4.0992   0.1447   0.8393   0.0160
   0.9360   4.0990   0.1445   0.8395   0.0160
   0.9376   4.0973   0.1443   0.8397   0.0160
   0.9391   4.0976   0.1441   0.8398   0.0160
   0.9406   4.0975   0.1439   0.8400   0.0160
   0.9422   4.0820   0.1428   0.8428   0.0144
   0.9439   4.0817   0.1426   0.8430   0.0144
   0.9455   4.0813   0.1423   0.8433   0.0144
   0.9472   4.0834   0.1421   0.8435   0.0144
   0.9489   4.0808   0.1419   0.8437   0.0144
   0.9506   4.0789   0.1417   0.8440   0.0143
   0.9522   4.0785   0.1415   0.8442   0.0143
   0.9539   4.0806   0.1413   0.8444   0.0143
   0.9556   4.0787   0.1411   0.8447   0.0143
   0.9572   4.0784   0.1409   0.8449   0.0142
   0.9589   4.0780   0.1406   0.8451   0.0142
