TEXTURE AT STRAIN =    0.2698
   0.877   1.308   0.871  <-- length of average ellipsoid axes for phase
   94.04   90.24    0.10  <-- Euler angles of average ellipsoid axes for phase
B       500
  105.99  123.11   40.30   0.0020000
 -123.76   39.08   52.18   0.0020000
  167.12   32.47   45.45   0.0020000
  149.37   76.10   33.62   0.0020000
  143.98   76.72    9.39   0.0020000
   28.93    4.40 -135.51   0.0020000
   11.96   70.30  -31.37   0.0020000
 -152.78  163.38  -14.03   0.0020000
  -47.39   56.50  133.51   0.0020000
  -68.78  131.12 -138.42   0.0020000
  -23.84  161.15  -54.80   0.0020000
   59.69  175.77  102.95   0.0020000
   42.65   60.02   42.46   0.0020000
   28.06  113.89  156.52   0.0020000
   54.70  115.75  -26.02   0.0020000
  -89.09   80.73  173.93   0.0020000
  115.49    8.76 -171.62   0.0020000
   89.27   64.38   12.30   0.0020000
   79.38   58.17 -145.81   0.0020000
  -78.95   24.65  162.32   0.0020000
 -139.97  121.01  -32.69   0.0020000
    8.14  149.92 -117.03   0.0020000
  -76.12   10.34   46.00   0.0020000
  179.38   34.41 -135.33   0.0020000
  131.44   83.84   67.93   0.0020000
  111.11  112.46  -57.09   0.0020000
  -63.39   90.85  -86.07   0.0020000
  -11.46   60.72  169.77   0.0020000
  -86.10   89.90  -96.67   0.0020000
  -35.64  126.82  -39.19   0.0020000
  120.39   80.14   72.97   0.0020000
   17.57   50.54  -42.13   0.0020000
  178.40  123.72  125.06   0.0020000
  -86.05   73.10 -106.50   0.0020000
  -41.17  129.97 -133.02   0.0020000
   30.50   58.66 -123.62   0.0020000
   21.23  135.85 -136.55   0.0020000
 -111.81   61.49 -174.17   0.0020000
 -123.86  106.54  112.96   0.0020000
   28.23   77.59   82.75   0.0020000
 -127.31  129.56   53.49   0.0020000
  114.26   83.15   95.44   0.0020000
  164.49   72.24 -164.02   0.0020000
  -59.21   52.25  133.65   0.0020000
  166.81   61.97 -115.27   0.0020000
 -152.83   91.94 -143.77   0.0020000
  -96.58   50.26   22.40   0.0020000
  132.25   65.11  131.63   0.0020000
  -43.44   50.71 -153.16   0.0020000
  -73.03   39.52 -154.55   0.0020000
  -82.02   22.79  -61.01   0.0020000
  -60.20   99.89  161.27   0.0020000
   37.22  121.73 -135.28   0.0020000
  172.01  159.11  -39.57   0.0020000
   71.16   55.52 -135.50   0.0020000
  -92.14  115.02  -21.54   0.0020000
   79.05  116.95  -61.27   0.0020000
  -16.07   45.69   33.02   0.0020000
  -60.75    3.02  -25.92   0.0020000
   46.78   90.04  101.66   0.0020000
  157.37    6.35   -9.90   0.0020000
  -16.85  114.82  150.92   0.0020000
 -104.30   62.23 -134.04   0.0020000
  169.67  171.36  -61.95   0.0020000
  -52.57   65.38 -135.39   0.0020000
  165.89   56.70 -137.01   0.0020000
   17.52  143.47 -138.18   0.0020000
   40.16  125.06 -136.81   0.0020000
 -124.25   31.61   77.21   0.0020000
 -132.60   59.15 -140.90   0.0020000
   27.17   74.96   22.15   0.0020000
   -4.80  102.28  169.16   0.0020000
  108.92   16.46  141.07   0.0020000
 -118.98   85.66  -60.79   0.0020000
   52.37  164.65  118.59   0.0020000
  -61.85  172.16   21.32   0.0020000
    0.09  145.72 -144.73   0.0020000
  163.26   48.10   45.82   0.0020000
  134.37   70.53   82.17   0.0020000
    4.26  139.79   44.69   0.0020000
  175.67   64.78  160.90   0.0020000
   67.87   13.65  174.25   0.0020000
  -43.30  154.94  121.02   0.0020000
  -50.63  108.42 -165.03   0.0020000
   43.53    2.46   44.56   0.0020000
  155.22   71.63 -168.66   0.0020000
  175.59   74.58  141.28   0.0020000
   55.15   90.94  101.84   0.0020000
   13.99  123.49   49.96   0.0020000
   15.91   62.76  -50.16   0.0020000
  162.12   22.51    9.47   0.0020000
   93.02   22.25   24.38   0.0020000
   95.74   79.98  170.60   0.0020000
   31.02  128.71 -133.26   0.0020000
  -52.11   95.89   -2.94   0.0020000
 -172.85  142.50 -133.90   0.0020000
  122.29  131.60  131.65   0.0020000
   74.68   70.94  -63.65   0.0020000
   99.40  120.82  -49.68   0.0020000
 -174.43   81.58   74.22   0.0020000
   75.69   60.34  -41.86   0.0020000
 -179.87   85.59   85.95   0.0020000
  132.54   55.82   36.73   0.0020000
  168.34  133.19  129.23   0.0020000
   40.30   93.00   89.27   0.0020000
  123.24   96.35  -50.98   0.0020000
   44.87   19.03   17.86   0.0020000
  -35.63   53.23  135.30   0.0020000
    2.72  123.79 -129.90   0.0020000
  -21.65   77.49 -112.39   0.0020000
   12.85   38.11 -130.03   0.0020000
   62.01  118.27   61.19   0.0020000
  -81.12  122.97  134.08   0.0020000
 -139.20   59.29 -144.40   0.0020000
  116.27  106.11 -104.16   0.0020000
  128.56  126.47  -41.18   0.0020000
   75.31   59.36   37.29   0.0020000
  -70.11   47.76  -47.81   0.0020000
 -146.98  113.06   19.05   0.0020000
   33.67  146.05   -8.96   0.0020000
   32.82   16.12  -48.95   0.0020000
   12.83   93.90   90.31   0.0020000
   65.35   58.64  175.78   0.0020000
  -92.50   56.07  140.27   0.0020000
 -152.03  148.90   40.91   0.0020000
   86.08  139.49   22.46   0.0020000
   88.85   89.19  -87.66   0.0020000
 -169.59  129.16  -47.40   0.0020000
 -161.10   54.43 -133.62   0.0020000
  -28.20  164.49 -102.55   0.0020000
    7.90   80.77    3.50   0.0020000
 -125.18  109.22  121.07   0.0020000
   42.58   96.48  -98.51   0.0020000
  -88.06   51.52  -59.50   0.0020000
 -155.39  125.76 -149.24   0.0020000
  -91.95  121.02  -38.45   0.0020000
  -82.34   68.00   86.49   0.0020000
  163.81   74.06  153.67   0.0020000
  -75.52   81.57   13.05   0.0020000
   31.92  122.90  146.80   0.0020000
  -47.89  144.77  131.53   0.0020000
  130.84  134.42  120.55   0.0020000
 -176.55   71.50   90.77   0.0020000
   81.21   24.56   56.64   0.0020000
 -155.19  105.79   80.45   0.0020000
  146.64  119.12   41.49   0.0020000
  138.39   57.43  122.10   0.0020000
   95.08   90.67  103.57   0.0020000
   29.39   90.97  -89.99   0.0020000
   89.22   62.20  131.47   0.0020000
 -167.24  126.34   50.26   0.0020000
  -50.77  121.16  -44.52   0.0020000
   65.13   71.00   13.76   0.0020000
 -119.15   65.52   60.12   0.0020000
  -98.24   82.08 -107.17   0.0020000
  113.49  150.89  149.58   0.0020000
 -103.72  132.77  -56.73   0.0020000
   40.87  151.42   37.93   0.0020000
  158.33   94.03   82.21   0.0020000
  172.23   86.96 -155.07   0.0020000
   23.54  120.88   61.57   0.0020000
  122.21   51.56 -177.09   0.0020000
 -116.39  117.42   36.66   0.0020000
 -139.03  127.44 -136.47   0.0020000
   85.01   62.72   56.38   0.0020000
   50.04  122.30   44.51   0.0020000
  -31.74   36.79  135.02   0.0020000
   97.12    8.58  145.48   0.0020000
  103.82   90.43  177.23   0.0020000
  119.35   58.66  144.51   0.0020000
  -35.66  114.83 -120.65   0.0020000
  -53.11  160.60  -32.29   0.0020000
 -174.87   17.58 -177.56   0.0020000
 -103.77   92.97  -21.80   0.0020000
  -87.60  130.58   30.84   0.0020000
  141.47  106.33  -31.48   0.0020000
  165.10  120.38  134.30   0.0020000
 -156.26  118.63 -158.70   0.0020000
 -115.37  113.61  -60.33   0.0020000
  110.17   71.33  -82.69   0.0020000
   -9.45   47.00   62.27   0.0020000
  114.31   87.29 -173.33   0.0020000
 -131.96  118.55  118.11   0.0020000
 -102.01   56.74 -132.67   0.0020000
  125.85  121.52  127.70   0.0020000
  121.19   51.36   30.19   0.0020000
  167.42   62.85 -150.45   0.0020000
   36.45  112.40   64.18   0.0020000
 -159.98  111.75 -150.40   0.0020000
  144.93   77.26  -70.94   0.0020000
 -148.79   61.90  -62.66   0.0020000
  144.33   53.31  -47.26   0.0020000
  -72.79  129.46  -39.12   0.0020000
  -77.99   89.40   85.85   0.0020000
  -57.41   81.75  155.73   0.0020000
   72.50  101.65   -0.25   0.0020000
  155.42  163.97 -164.76   0.0020000
   31.36  172.06   73.21   0.0020000
   76.17  142.60 -140.29   0.0020000
 -114.66   53.21   28.54   0.0020000
   89.44  155.13  165.39   0.0020000
   23.37  125.96   41.25   0.0020000
   22.51  117.60 -129.04   0.0020000
   98.69   79.97  -98.54   0.0020000
  -31.26  101.98   -8.68   0.0020000
   43.61   70.42  -63.16   0.0020000
  128.54  152.12  -13.14   0.0020000
 -100.55  107.94    0.15   0.0020000
   81.01   19.97   65.46   0.0020000
  -67.75  126.49  -49.37   0.0020000
  -75.77   56.23 -118.32   0.0020000
 -163.06   27.09   14.50   0.0020000
  -54.15  148.06 -134.49   0.0020000
   25.49   85.99  176.78   0.0020000
    4.84  175.83 -171.90   0.0020000
  103.19   86.25  -61.70   0.0020000
   22.27  120.00 -135.47   0.0020000
    0.90   26.09 -140.54   0.0020000
   17.58   72.26 -161.24   0.0020000
 -155.44   70.22  167.81   0.0020000
   73.48  143.36  -43.43   0.0020000
 -160.04   86.06   12.98   0.0020000
 -166.24   60.14 -137.28   0.0020000
  -36.12  130.84  -49.01   0.0020000
  -44.92   85.87  175.98   0.0020000
  132.53   68.47 -152.90   0.0020000
  -30.56  111.51 -177.08   0.0020000
  -18.44   74.36   17.20   0.0020000
 -137.10   42.54 -138.59   0.0020000
 -147.94   88.85  -90.72   0.0020000
  -70.74   81.09  -95.09   0.0020000
  -12.01   80.19   13.74   0.0020000
  158.91  171.70   79.67   0.0020000
  137.92   56.81   53.20   0.0020000
  169.28  142.16  137.13   0.0020000
 -154.63   94.03   98.52   0.0020000
  164.50  101.81 -104.55   0.0020000
 -112.87  100.32  162.80   0.0020000
   61.37   77.73 -106.16   0.0020000
 -133.46   89.26 -174.23   0.0020000
   21.91   82.19   -1.37   0.0020000
   54.16   53.66 -100.74   0.0020000
   -9.16  138.15   47.65   0.0020000
  -61.20  164.14  -86.32   0.0020000
  -34.87   84.15  -91.15   0.0020000
  -65.67  119.01   57.83   0.0020000
 -122.35  112.16 -152.35   0.0020000
  109.47  130.62 -138.41   0.0020000
 -112.46  122.90   47.90   0.0020000
  -76.61  102.80  177.51   0.0020000
  -96.51  100.89   90.68   0.0020000
  119.55   78.73  -89.35   0.0020000
  -93.02   68.87 -172.89   0.0020000
  -38.57   67.79  176.31   0.0020000
    0.17   52.24  130.13   0.0020000
  141.65   42.48   42.85   0.0020000
  -86.69  141.26 -173.96   0.0020000
   30.24  117.56   38.00   0.0020000
   18.08  129.71  -46.84   0.0020000
  120.13  117.49 -133.84   0.0020000
 -121.66   72.34 -169.69   0.0020000
  -86.53   87.72  -80.82   0.0020000
  -45.28  137.51   48.83   0.0020000
  132.81   44.06  124.34   0.0020000
 -130.88  150.94  152.63   0.0020000
  -19.35   50.97  -46.24   0.0020000
  -12.29  156.72   22.13   0.0020000
  -96.57  163.82    5.25   0.0020000
 -150.77   93.00  -63.82   0.0020000
  -57.60  112.84 -116.48   0.0020000
  -44.68  119.75  133.08   0.0020000
 -170.55  136.98 -130.84   0.0020000
 -114.25  120.22  -53.08   0.0020000
  -83.12  115.47  129.04   0.0020000
  -91.08  124.13  134.49   0.0020000
    3.80  127.99  -53.84   0.0020000
 -122.31  125.69  -27.23   0.0020000
 -172.30  112.10   18.74   0.0020000
  117.63  152.60  152.48   0.0020000
   49.11  123.68   45.71   0.0020000
 -111.72  126.00  -47.95   0.0020000
  152.65   58.77  -44.01   0.0020000
 -103.71  131.40 -137.52   0.0020000
   75.19   73.88   93.56   0.0020000
 -122.30  164.67 -160.68   0.0020000
  -99.72  120.77  -44.76   0.0020000
   56.95  114.38  104.31   0.0020000
  146.59   68.13   60.08   0.0020000
  -31.41  117.02 -146.86   0.0020000
  -14.33   17.70 -136.60   0.0020000
  -78.00  128.14   52.13   0.0020000
   13.69   49.09  137.75   0.0020000
   63.46   65.50 -152.14   0.0020000
  -74.24   58.07   19.32   0.0020000
  165.83  167.22  -66.32   0.0020000
  -20.69   55.91  140.46   0.0020000
  139.50  115.14 -148.32   0.0020000
  -94.85   62.46  147.44   0.0020000
 -144.26  148.73  133.74   0.0020000
 -149.24  128.34  154.73   0.0020000
   27.37   69.88   -8.64   0.0020000
   25.66   44.63  130.87   0.0020000
   -6.92   25.86   53.94   0.0020000
 -155.63  107.36    0.97   0.0020000
  -51.82  176.20   35.28   0.0020000
  -39.47   93.48 -109.62   0.0020000
  -50.64   86.07  178.87   0.0020000
 -119.93   78.30  169.68   0.0020000
  166.50  105.42 -161.92   0.0020000
  -97.15   92.09   88.79   0.0020000
   37.31  121.98  122.44   0.0020000
  -53.41  119.05  133.97   0.0020000
 -175.11   51.91  125.33   0.0020000
 -166.65  128.71  144.82   0.0020000
 -133.69   43.25 -151.94   0.0020000
   61.47  100.87 -168.29   0.0020000
  -14.52   83.33   74.36   0.0020000
 -111.71   63.06   61.61   0.0020000
  -50.19   78.43 -159.08   0.0020000
 -170.96   91.78   13.11   0.0020000
   25.31  148.03   39.92   0.0020000
  108.04   86.45  -96.60   0.0020000
  -38.81   83.94  164.50   0.0020000
  106.78  127.57 -136.69   0.0020000
  -12.82   15.33 -177.98   0.0020000
  -36.20   89.20  -95.23   0.0020000
   -3.16  131.58  125.51   0.0020000
   19.89  116.74   32.40   0.0020000
  107.44   85.62   -3.17   0.0020000
  174.45   75.50   23.01   0.0020000
  -56.59  107.67   64.94   0.0020000
   43.84   93.68  -87.72   0.0020000
  109.30  165.64   65.20   0.0020000
 -105.88   37.70  -13.69   0.0020000
   25.04  111.98   78.45   0.0020000
 -111.23   76.86   93.40   0.0020000
    8.06  142.26  131.87   0.0020000
   77.44  104.19 -164.13   0.0020000
  -24.71  112.65 -118.58   0.0020000
  170.56  119.36  -39.69   0.0020000
  109.69   24.04   21.57   0.0020000
   74.76  120.19 -143.67   0.0020000
   96.34   52.09   50.18   0.0020000
   11.69  160.23   14.10   0.0020000
  103.55  105.09   25.38   0.0020000
 -177.85  131.38 -144.29   0.0020000
   73.90   83.28    2.98   0.0020000
 -151.75  154.84   31.10   0.0020000
   50.88   56.29 -141.68   0.0020000
 -142.71  123.05   42.50   0.0020000
  124.14  130.63 -123.86   0.0020000
 -111.35  105.88   49.24   0.0020000
  -31.63  125.91  133.67   0.0020000
   93.81   96.30  -95.14   0.0020000
  119.96   18.19 -151.91   0.0020000
 -104.03   90.84  178.18   0.0020000
   10.17  103.04  -16.21   0.0020000
  -95.60   54.72   53.02   0.0020000
 -141.38  111.61   34.21   0.0020000
 -103.96   36.47 -134.09   0.0020000
  153.17   88.49   94.22   0.0020000
  -55.04   97.44   81.53   0.0020000
  159.68  112.01  175.16   0.0020000
 -157.56  119.66  -55.83   0.0020000
  131.06   60.95 -149.95   0.0020000
  167.86  157.34   -3.60   0.0020000
   21.84   91.46 -109.59   0.0020000
  117.80   69.03  135.62   0.0020000
  -32.25  168.47   19.03   0.0020000
  -49.71   98.73 -173.11   0.0020000
  120.05  143.98  -37.92   0.0020000
  126.17   52.74  147.71   0.0020000
 -122.23   55.82  -50.50   0.0020000
  -79.46   18.25  -70.87   0.0020000
    7.10  123.71  -84.82   0.0020000
   66.96   80.03  -86.58   0.0020000
 -109.62  155.36 -129.18   0.0020000
  -13.60   58.03  -57.61   0.0020000
   56.58   36.66  -50.06   0.0020000
  -40.87   65.94   71.04   0.0020000
  -98.40   63.33  -76.14   0.0020000
   19.14  128.82  130.11   0.0020000
 -173.57  141.21  139.74   0.0020000
  167.00   39.42  130.70   0.0020000
  -94.96  124.28  -33.91   0.0020000
   35.69   91.24  178.44   0.0020000
    8.24  113.39  -44.10   0.0020000
   89.44   53.66 -135.98   0.0020000
  170.08  134.47  131.74   0.0020000
  117.94  100.90  112.23   0.0020000
  142.23  160.70  143.59   0.0020000
  131.13   93.35  -70.58   0.0020000
 -121.69   96.14  -77.63   0.0020000
  141.80   51.38  140.53   0.0020000
   39.04   80.49   78.71   0.0020000
 -168.15  132.99 -132.50   0.0020000
  -77.71  134.82  -55.77   0.0020000
 -173.66   53.84 -126.67   0.0020000
   81.76   51.55   38.93   0.0020000
   71.05   59.64  -55.79   0.0020000
   62.32   21.74  -65.43   0.0020000
 -131.22   32.51  101.02   0.0020000
 -163.97   96.70   15.52   0.0020000
 -130.77   39.41  -43.15   0.0020000
   58.81   63.85 -155.80   0.0020000
 -146.30  111.58  -50.02   0.0020000
 -170.86  116.79  -92.48   0.0020000
 -120.31  120.08 -153.75   0.0020000
 -116.43   61.26  150.37   0.0020000
  -89.25   65.84   49.50   0.0020000
 -160.66  114.11   53.65   0.0020000
  126.02  147.00  -42.63   0.0020000
  -43.02   67.20 -115.36   0.0020000
    6.55   89.70  -94.44   0.0020000
  129.95  156.07  -90.23   0.0020000
  -14.08   56.77 -146.16   0.0020000
  -69.32  110.21   25.38   0.0020000
  -51.89   76.54 -157.32   0.0020000
  158.58   48.79 -140.06   0.0020000
   19.03  177.24 -104.88   0.0020000
   67.86  129.68  139.92   0.0020000
  109.46   89.56 -174.26   0.0020000
    6.32  126.10 -142.11   0.0020000
  121.94  135.52 -125.50   0.0020000
   -8.17   59.01   52.90   0.0020000
 -105.02  109.32  163.37   0.0020000
 -152.88  122.37   -6.87   0.0020000
 -161.25  117.44  -60.94   0.0020000
  -80.96  153.40  136.82   0.0020000
    8.49   64.32   26.89   0.0020000
  171.32  114.72   99.74   0.0020000
   63.32   58.48 -142.82   0.0020000
  176.27  139.26 -145.48   0.0020000
  -78.95   37.33 -104.96   0.0020000
  156.22  114.17  -29.13   0.0020000
   34.61    6.83 -140.42   0.0020000
   61.82   55.23  132.87   0.0020000
 -133.35   42.84  -18.95   0.0020000
  -77.48   56.84  147.58   0.0020000
 -146.68   86.69    9.81   0.0020000
   95.07  105.60  100.83   0.0020000
   55.08  106.11  -19.35   0.0020000
   -4.49   68.17   35.57   0.0020000
    0.38  118.65  123.13   0.0020000
   55.30  174.07 -137.49   0.0020000
  -72.69  134.98  128.82   0.0020000
 -172.61   15.34 -165.35   0.0020000
   84.86  106.40  -70.57   0.0020000
  -69.57  103.35  169.73   0.0020000
  122.40   40.37  110.80   0.0020000
 -174.86   16.53  -35.47   0.0020000
   71.06  120.32   46.19   0.0020000
  122.14   40.85   37.92   0.0020000
  168.31  108.27 -155.51   0.0020000
 -167.48   32.42 -132.41   0.0020000
  122.87  122.17 -126.68   0.0020000
  -93.44   54.33  -47.22   0.0020000
 -104.04   65.09  114.87   0.0020000
  156.24   81.55   78.23   0.0020000
  -70.07   61.59 -147.78   0.0020000
   33.15  107.13  118.53   0.0020000
 -167.36   67.51   62.08   0.0020000
   -2.54  103.11  -19.35   0.0020000
  -13.34  131.88   43.33   0.0020000
   46.68   54.05  123.44   0.0020000
    9.32  109.18   91.10   0.0020000
 -152.51    8.19 -137.12   0.0020000
  -46.84   70.92  144.09   0.0020000
  -32.39   53.84   19.40   0.0020000
   11.65  139.04  142.58   0.0020000
 -124.03  129.70  -41.96   0.0020000
  159.94   15.84  125.66   0.0020000
  -33.46  116.36 -112.35   0.0020000
   52.84  116.84 -128.13   0.0020000
 -130.79  113.61  -63.77   0.0020000
   11.64  162.05  115.05   0.0020000
  -72.49  134.00   33.73   0.0020000
  -74.72   63.02   30.62   0.0020000
 -123.18  140.69  -42.46   0.0020000
 -165.11   48.20 -133.84   0.0020000
    4.05   58.47  137.96   0.0020000
   36.77   85.08    1.51   0.0020000
 -161.02  115.60 -122.70   0.0020000
   46.13   41.23  -23.94   0.0020000
  142.07   14.72 -144.52   0.0020000
  112.07   86.18 -174.98   0.0020000
 -101.23   49.08  132.62   0.0020000
  -99.13   85.22  172.83   0.0020000
  112.80  115.39  122.39   0.0020000
  157.36  162.57 -124.93   0.0020000
 -125.98  103.83    6.86   0.0020000
 -134.81   76.13   81.58   0.0020000
   51.40   61.85   71.99   0.0020000
  159.47  167.37  -37.39   0.0020000
 -165.68  102.11  -42.71   0.0020000
  -57.00  114.81    0.58   0.0020000
  105.63   83.62   -6.77   0.0020000
   28.89  121.25   48.41   0.0020000
   -7.30  122.94   46.20   0.0020000
 -123.00   95.16  -74.03   0.0020000
