TEXTURE AT STRAIN =    1.0000
   2.692   1.000   0.364  <-- axes length of macro ellipsoid
    0.00    0.00    0.00  <-- Euler angles of macro ellipsoid (deg)
B       500
  117.62  102.11   32.73   0.0020000
 -135.13   38.96   75.82   0.0020000
 -134.37   36.74  -18.51   0.0020000
  138.52  103.93   32.56   0.0020000
  154.13   58.36  -16.79   0.0020000
  -21.64   29.26  -76.57   0.0020000
   32.00  111.47  -24.11   0.0020000
 -117.70  144.79   25.05   0.0020000
  -47.41   80.10  143.38   0.0020000
  -72.13  146.58 -123.84   0.0020000
  -83.73  147.25 -128.87   0.0020000
   86.43  146.86  132.26   0.0020000
   46.32   74.83   32.04   0.0020000
   33.81  119.72  161.86   0.0020000
   43.83  109.83  -26.87   0.0020000
  -86.48   88.73  147.91   0.0020000
   85.89   32.72 -132.44   0.0020000
  121.78   66.79  -17.67   0.0020000
   57.40   72.02 -153.53   0.0020000
  -75.46   32.66  129.67   0.0020000
 -141.20  114.52  -23.19   0.0020000
   45.68  139.12  -80.45   0.0020000
  -73.00   33.75   34.32   0.0020000
 -123.97   36.00  157.02   0.0020000
  132.00   76.21   56.51   0.0020000
  121.39   97.00  -51.01   0.0020000
  -58.71  106.83  -62.60   0.0020000
  -26.54   49.27  173.91   0.0020000
  -84.73   89.22 -126.74   0.0020000
  -26.91  135.99   -1.03   0.0020000
  128.69   75.52   57.18   0.0020000
  -28.96   45.45   -0.26   0.0020000
  154.30  127.48  100.45   0.0020000
  -77.51   85.77 -124.96   0.0020000
  -26.52  139.53  -95.79   0.0020000
   25.55   47.33  -86.23   0.0020000
  -32.25  138.42  174.46   0.0020000
 -137.79   66.47 -156.55   0.0020000
 -127.32   79.83  126.51   0.0020000
   20.53   57.53  104.52   0.0020000
 -134.63  112.19   64.78   0.0020000
  107.22   99.48  119.67   0.0020000
  164.56   50.52  174.65   0.0020000
  -52.71   37.43  109.19   0.0020000
  154.21   53.93 -102.99   0.0020000
 -139.74   75.23 -148.25   0.0020000
  -76.14   36.70   19.75   0.0020000
  134.60   86.80  137.47   0.0020000
  -37.21   44.62 -178.69   0.0020000
  -65.90   35.74 -156.05   0.0020000
  -84.79   33.22  -48.99   0.0020000
  -55.89   78.94  144.35   0.0020000
   44.17  106.28 -120.41   0.0020000
 -131.81  144.15   20.66   0.0020000
   58.77   81.02 -141.96   0.0020000
 -109.82  111.87  -12.49   0.0020000
   75.39   84.59  -55.15   0.0020000
   26.32   44.52   -0.42   0.0020000
   -0.31   17.72  -88.82   0.0020000
   45.38   72.34  119.55   0.0020000
  115.95   33.50   30.99   0.0020000
   -1.76  125.85 -179.08   0.0020000
 -119.85   88.44 -136.59   0.0020000
  113.60  145.72 -120.60   0.0020000
  -48.14   85.43 -131.12   0.0020000
 -161.59   59.45 -165.25   0.0020000
  -37.98  139.96  170.56   0.0020000
   29.69  136.95 -176.20   0.0020000
 -123.17   38.02   73.59   0.0020000
 -133.06   73.82 -149.53   0.0020000
   38.07   65.89   23.51   0.0020000
   -1.06  128.69 -179.33   0.0020000
  113.54   33.37  122.23   0.0020000
 -127.13   83.68  -50.12   0.0020000
   55.71  145.24  116.29   0.0020000
    3.78  152.32   91.52   0.0020000
  -44.75  139.43  170.96   0.0020000
 -144.10   40.20   -8.86   0.0020000
  144.15   62.37   69.54   0.0020000
  -49.35  142.74  -17.55   0.0020000
  159.23   49.99  173.13   0.0020000
   93.44   32.69  133.79   0.0020000
  -94.10  147.44   44.14   0.0020000
  -40.81  112.08 -154.65   0.0020000
   -1.93   21.92   91.46   0.0020000
  157.98   53.38  168.63   0.0020000
  148.16   67.50  155.48   0.0020000
   50.53   74.87  122.09   0.0020000
   32.89  120.78   72.74   0.0020000
   36.44   65.20  -67.11   0.0020000
  152.50   40.89    5.51   0.0020000
   86.19   32.74   47.44   0.0020000
  101.83   85.30  146.02   0.0020000
   44.67  121.36 -106.80   0.0020000
  -40.94  113.36   23.98   0.0020000
 -116.80  145.23  -65.53   0.0020000
  114.38  145.89  148.79   0.0020000
   63.76   82.88  -51.46   0.0020000
  110.27   92.37  -48.64   0.0020000
 -178.87   71.44   86.17   0.0020000
   59.40   89.27  -45.24   0.0020000
  178.74   57.23   88.58   0.0020000
  143.08   44.49    0.46   0.0020000
  135.76  134.68   90.10   0.0020000
   36.41  115.58   68.42   0.0020000
  130.05   92.39  -47.02   0.0020000
   84.25   32.89  -39.56   0.0020000
  -38.51   31.53  114.23   0.0020000
   28.26  124.03 -104.52   0.0020000
  -37.00   66.01 -113.03   0.0020000
  -38.89   41.58  -82.40   0.0020000
   46.64  107.92   61.32   0.0020000
  -66.83   93.02  131.80   0.0020000
 -138.02   68.79 -154.40   0.0020000
  112.90   78.44 -120.85   0.0020000
  137.86  138.84   -9.02   0.0020000
   65.08   79.26   34.16   0.0020000
  -61.22   35.83  -65.80   0.0020000
 -152.56  128.37  -10.19   0.0020000
   49.78  139.07    8.57   0.0020000
  -24.15   35.70   10.45   0.0020000
    7.08  121.23   84.45   0.0020000
   39.71   61.26 -160.49   0.0020000
  -89.38   68.20  175.29   0.0020000
  154.94  138.78   -5.29   0.0020000
   81.69  146.27   35.17   0.0020000
   89.04   88.87  -63.65   0.0020000
  147.81  133.40  -87.67   0.0020000
  160.59   50.56  -97.37   0.0020000
  -37.15  143.50 -105.02   0.0020000
   11.17   53.85    5.55   0.0020000
 -130.56   84.32  130.18   0.0020000
   40.24  112.70 -114.20   0.0020000
  -79.45   34.02  -57.35   0.0020000
 -158.95  134.22  178.89   0.0020000
  -97.42   90.92  -41.44   0.0020000
  -49.43   70.27   64.06   0.0020000
  143.98   65.01  157.29   0.0020000
  -69.88   95.81   37.42   0.0020000
   35.93  118.65  160.93   0.0020000
  -64.14  150.83  140.57   0.0020000
  133.67  123.52  104.35   0.0020000
 -167.34   48.08   91.08   0.0020000
   79.00   33.16   53.50   0.0020000
 -152.62  121.57   73.00   0.0020000
  136.95  107.92   28.80   0.0020000
  146.25   46.03   87.64   0.0020000
  103.04   91.44  130.23   0.0020000
    9.90  108.20 -101.98   0.0020000
   93.94   89.79  134.42   0.0020000
 -146.98  125.41   76.42   0.0020000
  -48.06   98.86  -51.95   0.0020000
   45.40   71.03   28.24   0.0020000
 -126.31   97.15   50.24   0.0020000
 -108.28   93.15 -130.67   0.0020000
  120.00  143.80  157.26   0.0020000
 -115.81  144.24  -67.53   0.0020000
   21.64  139.54    4.56   0.0020000
  171.60  117.46   98.75   0.0020000
  147.23  113.44 -157.04   0.0020000
   32.64  124.03   75.64   0.0020000
  139.89   55.30  166.29   0.0020000
 -126.98   87.87   43.10   0.0020000
 -150.62  139.92 -172.88   0.0020000
   71.75   91.56   48.06   0.0020000
   48.30  100.54   54.06   0.0020000
   16.16   39.78   87.14   0.0020000
  107.14   33.12  125.27   0.0020000
   99.01   84.77  150.84   0.0020000
  130.83   74.26  148.49   0.0020000
  -42.77   74.71 -121.22   0.0020000
  -52.06  145.24  -24.33   0.0020000
 -157.43   40.77  175.45   0.0020000
 -116.48   96.02  -39.71   0.0020000
  -95.70  146.88   36.90   0.0020000
  136.18   78.55  -35.44   0.0020000
  144.25  114.39  112.68   0.0020000
 -154.03  132.08  175.26   0.0020000
 -124.75   83.56  -50.32   0.0020000
  138.42   67.14 -114.56   0.0020000
  -36.87   46.14   88.41   0.0020000
  113.13  102.05 -149.55   0.0020000
 -145.20  130.64   82.53   0.0020000
 -117.90   89.45 -135.71   0.0020000
  132.10  105.34  121.36   0.0020000
  133.94   42.36    4.31   0.0020000
 -173.42   49.03 -179.56   0.0020000
   40.30  112.63   65.71   0.0020000
 -143.43   68.72 -154.79   0.0020000
  136.86  107.33  -60.70   0.0020000
 -145.41   60.29  -71.85   0.0020000
  157.64   43.06  -88.25   0.0020000
  -61.60  144.24  -22.59   0.0020000
  -79.90   85.33   58.25   0.0020000
  -51.82   79.62  143.56   0.0020000
   49.08  109.86  -25.97   0.0020000
  118.07  144.50  154.54   0.0020000
   79.52  146.54  127.23   0.0020000
   64.35  144.63 -153.87   0.0020000
 -133.64   68.82   25.40   0.0020000
   78.96  146.78  129.07   0.0020000
  -13.35  133.98    0.95   0.0020000
   39.06  112.82 -114.14   0.0020000
  104.93   82.27 -121.49   0.0020000
  -21.51  121.19   16.17   0.0020000
   45.47   73.07  -59.70   0.0020000
  124.26  142.37  -17.84   0.0020000
 -131.71  110.02  -26.63   0.0020000
   87.54   32.75   47.56   0.0020000
  -56.44  107.96  -62.04   0.0020000
  -50.22   70.01 -115.67   0.0020000
 -134.69   40.50  -10.54   0.0020000
  -42.43  145.87 -110.99   0.0020000
   12.70   62.11 -166.94   0.0020000
   -5.93  146.44  177.68   0.0020000
  118.62   93.26  -48.02   0.0020000
   38.84  111.44 -115.45   0.0020000
   54.19   36.72  159.94   0.0020000
   28.61   59.90 -161.83   0.0020000
 -156.70   52.51 -170.25   0.0020000
   72.91  146.04  -56.69   0.0020000
 -146.51   63.81   20.89   0.0020000
 -144.29   64.36 -158.40   0.0020000
  -47.93  124.77  -76.21   0.0020000
  -39.87   67.86  155.30   0.0020000
  132.11  101.12 -144.53   0.0020000
  -29.19  125.22 -166.08   0.0020000
  -13.83   53.46   -6.62   0.0020000
 -105.73   26.80 -141.77   0.0020000
 -168.61   72.24  -77.04   0.0020000
  -53.44   72.51 -117.69   0.0020000
   -6.67   56.10   -3.47   0.0020000
  156.11  144.29   79.54   0.0020000
  138.76   68.21   64.36   0.0020000
 -137.37  140.25 -168.97   0.0020000
 -171.05  109.59   84.02   0.0020000
  169.76  125.21  -84.54   0.0020000
 -122.25  103.71  147.01   0.0020000
   59.12  102.15 -123.84   0.0020000
 -136.49   70.09 -153.24   0.0020000
   16.08   58.95   13.35   0.0020000
   40.36   50.77  -81.39   0.0020000
   40.19  137.93   96.40   0.0020000
  -93.03  147.30 -136.51   0.0020000
  -32.42   62.53 -109.87   0.0020000
  -37.31  121.61  105.99   0.0020000
 -127.49   81.63 -141.87   0.0020000
  106.74  146.20 -124.29   0.0020000
 -123.16  101.93   54.67   0.0020000
  -53.18  110.70 -156.70   0.0020000
  -92.44   94.29   89.59   0.0020000
  137.98   67.98 -115.32   0.0020000
 -122.74   68.84 -159.57   0.0020000
  -32.65   57.59  164.27   0.0020000
   32.65   49.01   97.11   0.0020000
  166.16   41.65    1.38   0.0020000
  -86.58  149.21 -149.35   0.0020000
   38.89   80.50   36.86   0.0020000
  -29.37  135.58  -90.35   0.0020000
  128.72   93.72 -137.96   0.0020000
 -137.75   68.46 -154.74   0.0020000
  -84.65   90.94  -51.39   0.0020000
  -29.32  139.74   83.11   0.0020000
  141.55   40.97   97.67   0.0020000
  -88.03  147.35 -136.40   0.0020000
   28.53   44.41  -90.55   0.0020000
  -50.86  142.34  -16.97   0.0020000
  -75.05  147.65   51.07   0.0020000
 -138.21   71.29  -62.00   0.0020000
  -54.33   79.93 -126.69   0.0020000
  -47.04  103.17  124.07   0.0020000
 -128.29  140.23  -79.80   0.0020000
 -124.58   86.20  -48.28   0.0020000
  -71.10   91.06  133.54   0.0020000
  -94.09   90.24  134.59   0.0020000
  -28.57  131.73  -84.16   0.0020000
 -136.94  112.83  -24.66   0.0020000
  176.47  131.65    0.06   0.0020000
  121.66  143.47  158.33   0.0020000
   48.34  103.90   57.22   0.0020000
 -123.93  142.72  -72.15   0.0020000
  139.65   69.23  -26.65   0.0020000
 -112.55  145.53 -151.77   0.0020000
   47.88   70.58  117.44   0.0020000
 -111.65  145.81 -150.51   0.0020000
 -114.75   91.70  -43.71   0.0020000
   36.18  121.37   73.36   0.0020000
  137.62   70.52   62.16   0.0020000
  -39.93  112.35 -154.87   0.0020000
   44.68   34.46  158.76   0.0020000
  -67.34  145.06   64.20   0.0020000
  -32.51   45.18 -179.82   0.0020000
   51.25   75.24 -147.51   0.0020000
  -40.50   60.90  -18.59   0.0020000
  118.16  144.87 -116.93   0.0020000
  -34.34   61.33  160.98   0.0020000
  136.07  107.93 -151.25   0.0020000
 -105.84   91.95  138.36   0.0020000
  171.15  139.31   88.33   0.0020000
 -141.72  127.31  168.92   0.0020000
   25.27   53.12   11.64   0.0020000
   66.48   36.05   69.40   0.0020000
  -57.15   36.79  110.79   0.0020000
 -156.60  124.90  -13.35   0.0020000
    0.72  152.66   90.01   0.0020000
  -44.75   73.60 -120.27   0.0020000
  -41.48   68.63  154.62   0.0020000
 -114.29  103.94  150.93   0.0020000
  152.95  118.38 -161.47   0.0020000
  -92.27   92.55   74.47   0.0020000
   31.36  133.16   87.19   0.0020000
  -49.35   98.08  128.82   0.0020000
 -147.61   49.41   97.03   0.0020000
 -143.77  130.06  171.94   0.0020000
 -124.28   43.79  177.47   0.0020000
   63.02   76.66 -148.36   0.0020000
  -31.21   63.98   69.22   0.0020000
 -139.65   61.32  108.09   0.0020000
  -49.78  101.85 -144.56   0.0020000
 -164.80   74.37   18.33   0.0020000
  -28.20  139.28   -5.92   0.0020000
  111.89   77.68 -119.77   0.0020000
  -41.76   70.06  153.21   0.0020000
  108.59  145.93 -122.60   0.0020000
  -27.65   39.06 -171.31   0.0020000
  -37.61   66.82 -113.69   0.0020000
  -36.04  133.61   93.04   0.0020000
    3.06  104.79    7.27   0.0020000
  109.04   76.75  -25.93   0.0020000
  179.98   89.16   20.10   0.0020000
  -51.88   81.33   52.01   0.0020000
   36.63  115.50 -111.56   0.0020000
   98.17  146.68   50.85   0.0020000
 -106.18   34.75  -28.48   0.0020000
   28.38  124.58   75.99   0.0020000
 -133.48   70.51  116.97   0.0020000
  -43.56  139.99   79.61   0.0020000
   71.44   84.89 -141.79   0.0020000
  -38.20   70.42 -116.88   0.0020000
 -155.39  115.40  -19.85   0.0020000
  105.87   33.55   33.29   0.0020000
   60.55   85.86 -138.19   0.0020000
   91.11   32.74   45.89   0.0020000
   -5.35  138.10   -0.20   0.0020000
  116.00   95.03   39.85   0.0020000
  146.39  133.29 -177.48   0.0020000
   64.77   73.03   24.01   0.0020000
 -178.78  137.64   -0.30   0.0020000
   45.24   71.46 -151.29   0.0020000
 -137.86  101.24   54.29   0.0020000
  135.36  138.25  -97.36   0.0020000
 -123.92   92.50   46.62   0.0020000
  -39.91  113.38  114.28   0.0020000
   91.55   89.58 -123.99   0.0020000
  116.10   34.54 -152.34   0.0020000
  -95.72   95.29  158.42   0.0020000
   22.54  117.31  -17.73   0.0020000
 -109.22   35.70   65.91   0.0020000
 -136.74   79.62   35.76   0.0020000
 -109.41   34.28 -121.36   0.0020000
  171.17   89.33   93.94   0.0020000
  -56.94   74.35   60.72   0.0020000
  155.81  128.12 -170.76   0.0020000
 -170.52  131.22  -91.51   0.0020000
  145.80   49.61  172.22   0.0020000
  153.00  138.29   -5.25   0.0020000
   38.03  113.56 -113.41   0.0020000
  127.25   87.62  136.57   0.0020000
  -80.20  147.00  -37.86   0.0020000
  -41.58  111.35 -153.99   0.0020000
  131.01  142.02  -17.59   0.0020000
  136.73   68.02  154.60   0.0020000
 -131.22   73.75  -59.64   0.0020000
  -92.67   33.11  -43.61   0.0020000
   17.24  134.35  -90.10   0.0020000
   47.43   70.90  -62.13   0.0020000
 -111.87  146.21 -148.77   0.0020000
   11.72   47.18  -88.78   0.0020000
   68.56   32.68  -34.63   0.0020000
  -35.62   62.57   69.92   0.0020000
 -130.17   69.48  -64.80   0.0020000
  -24.91  134.87   90.75   0.0020000
 -127.86  140.99 -167.43   0.0020000
 -141.64   41.88   83.35   0.0020000
  -77.65  117.00    4.73   0.0020000
   33.92  115.43  158.60   0.0020000
   34.23  113.06  -23.72   0.0020000
   90.39   32.77 -135.28   0.0020000
  129.61  139.07   81.79   0.0020000
  125.43  101.43  125.43   0.0020000
  164.67  140.81  176.02   0.0020000
  132.26  104.25  -57.54   0.0020000
 -123.70   75.90  -57.93   0.0020000
  139.39   64.84  157.35   0.0020000
   28.40   96.40   74.29   0.0020000
 -129.13  139.33  -82.26   0.0020000
  -84.66  147.31  -43.59   0.0020000
  154.96   48.94  -96.46   0.0020000
   85.87   32.75   46.67   0.0020000
   54.61   74.37  -58.94   0.0020000
  100.11   26.74 -124.40   0.0020000
 -110.84   35.40   64.57   0.0020000
 -148.10   67.63   22.81   0.0020000
 -147.23   37.80  -11.72   0.0020000
   43.30   69.59 -153.10   0.0020000
 -139.42   95.78  -40.17   0.0020000
 -156.84  132.06  -94.25   0.0020000
 -141.79  127.35  168.99   0.0020000
 -143.02   56.22 -165.74   0.0020000
  -92.06   90.28   45.43   0.0020000
 -142.18  113.43   65.88   0.0020000
  138.99  144.09  -18.56   0.0020000
  -41.56   69.47 -116.23   0.0020000
    1.65   80.02  -90.76   0.0020000
  111.23  145.22 -118.51   0.0020000
   14.38   47.02 -178.57   0.0020000
  -60.49  101.05   35.05   0.0020000
  -50.18  100.50 -143.26   0.0020000
 -153.96   44.33  178.77   0.0020000
   68.53  147.41  -54.40   0.0020000
   71.55  146.20  123.94   0.0020000
  108.81   99.60 -148.86   0.0020000
  -25.15  130.42 -172.62   0.0020000
  133.37  139.93 -101.70   0.0020000
  -30.45   59.07   72.93   0.0020000
 -126.38  107.16  150.90   0.0020000
 -145.69  131.58   -6.20   0.0020000
 -166.49  131.83  -91.96   0.0020000
  -79.03  146.97  142.37   0.0020000
   22.03   57.19   14.90   0.0020000
  157.23  130.04   96.35   0.0020000
   51.19   75.31 -147.43   0.0020000
  137.95  136.73  176.03   0.0020000
  -83.67   30.50 -124.58   0.0020000
  147.72   72.09  -25.90   0.0020000
  -21.20   31.80  -78.27   0.0020000
   52.75   76.76  124.16   0.0020000
 -138.23   43.75   -2.90   0.0020000
  -52.89   71.09  153.99   0.0020000
 -141.88   65.93   22.95   0.0020000
  104.76  100.06  117.09   0.0020000
   46.92  106.93  -29.69   0.0020000
   28.01   68.69   23.22   0.0020000
  -20.94  120.62  106.40   0.0020000
   25.76  148.84 -165.49   0.0020000
  -79.13  147.10  141.11   0.0020000
 -138.72   36.75  163.19   0.0020000
   79.55   88.49  -49.41   0.0020000
  -73.72   82.40  148.44   0.0020000
  129.08   39.89   99.75   0.0020000
  130.11   34.87   23.27   0.0020000
   58.75   95.19   49.50   0.0020000
  133.36   38.47   14.66   0.0020000
  147.51  117.11 -159.81   0.0020000
  136.21   38.28  -75.61   0.0020000
  143.31  130.97  -84.12   0.0020000
  -92.51   33.21  -44.24   0.0020000
 -124.78   73.27  118.58   0.0020000
  147.22   62.53   69.52   0.0020000
  -60.16   96.91 -140.90   0.0020000
   42.82   73.84  120.99   0.0020000
 -170.39   95.11   69.19   0.0020000
    7.28  112.35  -11.15   0.0020000
  -53.06  140.46  -10.14   0.0020000
   40.72   65.91  113.59   0.0020000
   18.52  130.71   86.00   0.0020000
  151.12   32.61  -74.86   0.0020000
  -47.11   80.16  143.41   0.0020000
  -32.22   46.51   -2.10   0.0020000
   50.56  139.18 -171.31   0.0020000
 -117.27  146.23  -60.17   0.0020000
 -152.64   37.72   80.54   0.0020000
  -28.84  130.26  -82.02   0.0020000
   50.09  101.26 -125.37   0.0020000
 -151.04  116.79 -105.70   0.0020000
  -27.93  141.03   81.95   0.0020000
  -80.64  147.34   48.45   0.0020000
  -63.23   95.80   39.59   0.0020000
 -116.95  146.52  -59.49   0.0020000
  146.10   43.20  -87.30   0.0020000
  -27.59   60.65  161.94   0.0020000
   33.79   62.67   20.62   0.0020000
 -144.05  116.13 -111.75   0.0020000
   40.82   42.35   -5.11   0.0020000
  165.07   37.63 -175.78   0.0020000
  107.49   99.17 -149.34   0.0020000
 -100.65   33.44  142.20   0.0020000
 -100.71   93.59  144.06   0.0020000
  121.24  100.03  126.15   0.0020000
 -158.24  140.97  -84.50   0.0020000
 -143.14  117.22  -20.80   0.0020000
 -147.00   59.53  107.48   0.0020000
   36.69   52.23  100.70   0.0020000
 -153.53  143.83   10.26   0.0020000
 -144.12  108.73  -28.42   0.0020000
  -37.41  117.33   20.73   0.0020000
  111.58   77.22  -28.86   0.0020000
   40.63  111.83   64.95   0.0020000
   24.56  120.61   73.32   0.0020000
 -126.30   76.86  -56.44   0.0020000