TEXTURE AT STRAIN =    1.0000
   0.605   2.692   0.605  <-- length of average ellipsoid axes for phase
   57.54   90.00    0.00  <-- Euler angles of average ellipsoid axes for phase
B       500
  108.38  124.92   44.26   0.0020000
 -118.18   53.01   45.98   0.0020000
  167.50   52.08   44.99   0.0020000
  142.60   58.91   42.42   0.0020000
  146.60   84.42    3.84   0.0020000
   27.45    1.58 -134.05   0.0020000
   19.23   56.83  -43.22   0.0020000
 -157.43  172.74  -16.01   0.0020000
  -48.03   55.05  134.79   0.0020000
  -67.93  126.08 -135.47   0.0020000
  -17.80  169.71  -51.80   0.0020000
   62.02  178.35  105.29   0.0020000
   42.13   55.47   44.65   0.0020000
   20.26  124.20  137.82   0.0020000
   47.10  124.42  -42.65   0.0020000
  -89.71   86.83  177.93   0.0020000
  114.33    3.10 -170.54   0.0020000
   82.96   56.50   38.32   0.0020000
   73.54   54.96 -136.35   0.0020000
  -48.55   33.67  139.38   0.0020000
 -146.01  124.98  -43.54   0.0020000
   -9.71  129.65 -133.13   0.0020000
  -76.36    3.68   46.23   0.0020000
  178.92   52.42 -135.10   0.0020000
  139.62   81.62   75.31   0.0020000
  117.39  123.59  -46.36   0.0020000
  -63.44   90.39  -88.49   0.0020000
   -3.17   55.92  143.01   0.0020000
  -86.14   90.03  -92.38   0.0020000
  -38.94  125.54  -44.11   0.0020000
  124.86   82.41   79.67   0.0020000
   18.30   54.09  -44.53   0.0020000
 -176.21  125.23  133.67   0.0020000
  -78.41   58.67 -127.38   0.0020000
  -41.72  125.98 -134.66   0.0020000
   36.12   55.00 -133.56   0.0020000
   22.00  126.43 -135.19   0.0020000
 -116.02   59.01 -149.45   0.0020000
 -112.10  122.72  130.97   0.0020000
   26.30   85.13   87.32   0.0020000
 -131.57  125.88   46.06   0.0020000
  114.57   87.63   91.84   0.0020000
  158.03   58.46 -142.67   0.0020000
  -59.82   54.35  134.82   0.0020000
  174.17   55.19 -132.56   0.0020000
 -152.08   94.40 -147.18   0.0020000
 -107.18   53.43   40.64   0.0020000
  131.07   56.11  134.59   0.0020000
  -52.62   53.82 -137.75   0.0020000
  -87.06   51.68 -138.21   0.0020000
 -103.02   38.85  -46.52   0.0020000
  -67.04  100.07  166.77   0.0020000
   37.26  124.69 -135.01   0.0020000
  164.94  150.85  -44.13   0.0020000
   70.88   54.83 -135.08   0.0020000
  -99.52  124.39  -41.81   0.0020000
   86.13  124.51  -46.91   0.0020000
  -23.02   53.51   43.42   0.0020000
  -62.29    1.19  -24.41   0.0020000
   46.71   89.86   94.38   0.0020000
  157.60    2.24  -10.11   0.0020000
  -24.12  124.21  136.89   0.0020000
 -104.15   55.80 -134.88   0.0020000
  168.63  177.03  -63.07   0.0020000
  -52.74   56.21 -135.02   0.0020000
  165.19   55.05 -135.38   0.0020000
   20.55  127.27 -135.38   0.0020000
   41.03  125.20 -135.27   0.0020000
  -96.29   46.23   50.06   0.0020000
 -134.98   55.36 -135.81   0.0020000
   14.79   57.71   40.32   0.0020000
   -2.98   95.25  175.47   0.0020000
  111.41    7.49  139.71   0.0020000
 -128.23   65.61  -56.12   0.0020000
   55.05  173.52  119.42   0.0020000
  -59.93  177.26   23.20   0.0020000
    9.16  127.85 -136.15   0.0020000
  163.36   53.85   45.07   0.0020000
  126.43   78.42   83.04   0.0020000
    4.46  126.80   45.01   0.0020000
 -177.08   55.68  138.74   0.0020000
   71.04    5.38  171.71   0.0020000
  -24.95  133.59  133.99   0.0020000
  -44.94  121.59 -142.76   0.0020000
   41.70    0.88   46.36   0.0020000
  161.62   72.79 -164.44   0.0020000
  179.48   58.87  136.36   0.0020000
   55.26   90.24   94.46   0.0020000
   11.46  125.00   45.80   0.0020000
   14.16   55.77  -45.56   0.0020000
  146.86   13.56   19.26   0.0020000
   69.36   23.75   39.51   0.0020000
   94.84   86.36  176.64   0.0020000
   30.60  125.78 -134.70   0.0020000
  -51.96   92.10   -0.98   0.0020000
 -173.87  127.13 -134.90   0.0020000
  123.10  126.08  134.49   0.0020000
   64.41   56.64  -47.56   0.0020000
  100.93  124.59  -45.66   0.0020000
 -171.68   85.31   82.36   0.0020000
   76.29   55.51  -44.56   0.0020000
  179.95   88.39   88.46   0.0020000
  127.60   54.76   43.83   0.0020000
  170.81  126.22  134.17   0.0020000
   40.29   91.10   89.72   0.0020000
  126.82  112.93  -48.96   0.0020000
   35.65    9.59   22.08   0.0020000
  -35.59   54.50  135.09   0.0020000
    0.00  125.06 -134.17   0.0020000
   -8.25   58.89 -128.69   0.0020000
   17.02   52.92 -134.27   0.0020000
   54.93  124.71   46.93   0.0020000
  -80.77  124.93  134.86   0.0020000
 -143.81   55.23 -136.18   0.0020000
  115.01  113.37 -115.11   0.0020000
  126.48  125.44  -44.44   0.0020000
   71.64   55.26   44.02   0.0020000
  -71.04   53.87  -45.39   0.0020000
 -140.42  123.91   40.95   0.0020000
    7.49  138.11  -34.66   0.0020000
   31.57    6.60  -48.35   0.0020000
   12.78   91.44   90.16   0.0020000
   66.07   61.71  162.67   0.0020000
  -89.46   54.95  135.81   0.0020000
 -147.15  128.23   44.54   0.0020000
  101.28  128.71   40.80   0.0020000
   88.83   89.63  -89.12   0.0020000
 -169.02  125.87  -45.41   0.0020000
 -160.44   54.71 -134.81   0.0020000
  -32.60  173.37 -104.96   0.0020000
    8.36   86.71    1.29   0.0020000
 -117.54  123.05  133.13   0.0020000
   42.91   92.28  -92.98   0.0020000
  -95.89   54.16  -46.88   0.0020000
 -148.16  125.60 -136.87   0.0020000
  -94.92  124.74  -44.12   0.0020000
  -87.38   77.92   86.37   0.0020000
  174.72   57.21  137.90   0.0020000
  -76.25   86.56    5.34   0.0020000
   25.77  125.17  136.50   0.0020000
  -44.54  127.48  134.61   0.0020000
  139.24  126.63  132.94   0.0020000
 -175.77   81.51   90.42   0.0020000
   96.32   47.86   45.76   0.0020000
 -150.24   98.20   84.39   0.0020000
  147.43  124.40   44.50   0.0020000
  131.78   54.78  133.38   0.0020000
   95.26   90.24   95.35   0.0020000
   29.36   90.33  -89.96   0.0020000
   88.28   55.72  134.55   0.0020000
 -170.21  125.45   45.75   0.0020000
  -50.75  124.66  -44.89   0.0020000
   61.35   59.05   35.80   0.0020000
 -111.85   55.94   46.71   0.0020000
  -94.05   84.99  -98.86   0.0020000
   97.78  129.26  136.25   0.0020000
  -97.16  126.32  -46.54   0.0020000
   49.75  129.07   44.43   0.0020000
  158.43   91.37   87.30   0.0020000
  166.57   84.65 -164.03   0.0020000
   16.27  125.11   47.07   0.0020000
  115.92   53.55 -163.56   0.0020000
 -112.91  124.32   44.07   0.0020000
 -138.48  125.65 -135.27   0.0020000
   90.29   55.58   46.26   0.0020000
   50.12  124.76   44.95   0.0020000
  -31.84   52.80  135.05   0.0020000
   98.50    3.04  144.12   0.0020000
  103.81   90.11  178.92   0.0020000
  124.38   55.09  136.17   0.0020000
  -42.55  124.15 -133.35   0.0020000
  -63.31  167.10  -37.79   0.0020000
 -176.39    7.90 -176.70   0.0020000
 -107.62   93.14  -11.85   0.0020000
  -79.88  126.15   43.14   0.0020000
  133.62  122.16  -42.73   0.0020000
  165.04  124.54  134.84   0.0020000
 -148.21  124.94 -138.49   0.0020000
 -107.78  124.00  -46.79   0.0020000
  116.99   79.96  -84.93   0.0020000
    0.09   53.29   47.77   0.0020000
  114.34   88.99 -177.68   0.0020000
 -125.06  124.84  132.93   0.0020000
 -101.10   55.10 -134.62   0.0020000
  129.44  124.79  134.01   0.0020000
  113.36   54.05   43.01   0.0020000
  160.69   55.44 -136.84   0.0020000
   27.84  123.91   47.42   0.0020000
 -151.95  123.68 -136.87   0.0020000
  134.12   62.23  -57.22   0.0020000
 -155.82   55.25  -47.16   0.0020000
  143.23   54.48  -45.41   0.0020000
  -75.47  125.90  -44.19   0.0020000
  -78.04   89.82   88.48   0.0020000
  -44.80   62.80  145.92   0.0020000
   72.55   94.30   -0.21   0.0020000
  158.54  173.15 -163.98   0.0020000
   32.48  177.20   74.45   0.0020000
   80.97  127.13 -135.69   0.0020000
 -122.87   54.28   42.77   0.0020000
   60.62  155.49  144.86   0.0020000
   25.39  125.36   44.44   0.0020000
   20.38  124.25 -134.30   0.0020000
   97.76   86.39  -93.01   0.0020000
  -29.52   94.63   -3.18   0.0020000
   33.76   56.55  -47.38   0.0020000
   96.55  137.14  -41.24   0.0020000
 -100.42   98.11   -0.21   0.0020000
   95.99   12.69   56.91   0.0020000
  -65.40  125.50  -45.64   0.0020000
  -67.78   54.59 -132.84   0.0020000
  165.39   40.54   41.06   0.0020000
  -54.90  127.98 -134.90   0.0020000
   25.36   88.50  178.86   0.0020000
    6.09  178.43 -170.63   0.0020000
   95.62   74.64  -64.35   0.0020000
   22.33  124.49 -135.03   0.0020000
   -6.39   49.81 -135.35   0.0020000
    8.30   57.26 -139.96   0.0020000
 -156.34   62.29  149.87   0.0020000
   72.14  127.21  -44.78   0.0020000
 -160.95   88.29    5.02   0.0020000
 -166.53   55.52 -135.37   0.0020000
  -35.04  126.04  -45.53   0.0020000
  -45.07   88.46  178.52   0.0020000
  123.47   56.26 -137.29   0.0020000
  -34.72  101.51 -176.99   0.0020000
  -27.13   59.50   36.30   0.0020000
 -139.12   53.45 -135.55   0.0020000
 -147.98   89.61  -90.30   0.0020000
  -71.25   86.91  -91.79   0.0020000
  -12.90   85.64    5.91   0.0020000
  156.53  177.02   77.40   0.0020000
  142.64   54.91   46.08   0.0020000
  167.35  127.08  135.24   0.0020000
 -154.79   91.44   92.90   0.0020000
  163.64   96.89  -97.94   0.0020000
 -117.62   99.28  168.29   0.0020000
   64.03   78.62 -102.78   0.0020000
 -133.45   89.71 -177.94   0.0020000
   21.74   87.20   -0.44   0.0020000
   63.75   53.94 -123.25   0.0020000
  -10.88  126.65   45.44   0.0020000
  -61.18  173.41  -86.78   0.0020000
  -34.95   87.90  -90.44   0.0020000
  -71.76  124.74   46.52   0.0020000
 -113.74  123.82 -137.18   0.0020000
  110.37  125.98 -135.51   0.0020000
 -113.72  124.92   45.47   0.0020000
  -75.59   94.95  179.00   0.0020000
  -96.74   94.02   90.20   0.0020000
  119.70   85.81  -89.86   0.0020000
  -84.89   77.10 -172.72   0.0020000
  -44.48   77.12  175.14   0.0020000
   -2.16   54.34  134.33   0.0020000
  140.24   53.40   44.64   0.0020000
  -70.59  139.23 -156.27   0.0020000
   32.81  124.25   44.25   0.0020000
   18.58  125.92  -45.24   0.0020000
  119.81  124.18 -134.87   0.0020000
 -114.88   77.15 -169.43   0.0020000
  -86.56   89.17  -86.69   0.0020000
  -47.79  126.60   45.59   0.0020000
  126.27   53.35  133.51   0.0020000
 -149.47  130.02  136.59   0.0020000
  -19.80   54.15  -45.14   0.0020000
   11.16  159.15   36.32   0.0020000
  -92.46  173.10    8.17   0.0020000
 -145.39   95.59  -72.41   0.0020000
  -66.04  123.99 -132.66   0.0020000
  -44.29  124.49  134.75   0.0020000
 -172.97  126.54 -134.45   0.0020000
 -110.65  124.69  -46.02   0.0020000
  -80.73  124.00  134.37   0.0020000
  -90.87  125.11  134.92   0.0020000
    8.62  125.67  -46.13   0.0020000
 -130.63  125.69  -42.58   0.0020000
 -165.51  123.72   40.82   0.0020000
   98.00  130.57  136.38   0.0020000
   48.78  124.97   45.15   0.0020000
 -110.22  125.43  -45.48   0.0020000
  152.89   55.34  -44.88   0.0020000
 -103.03  126.12 -135.38   0.0020000
   78.18   82.85   92.10   0.0020000
 -117.54  173.44 -158.18   0.0020000
  -99.77  124.62  -44.96   0.0020000
   62.51  123.44  129.03   0.0020000
  154.67   56.29   46.71   0.0020000
  -25.89  124.37 -136.28   0.0020000
  -15.35    8.81 -136.00   0.0020000
  -81.80  125.73   45.97   0.0020000
   14.30   53.95  135.46   0.0020000
   55.66   55.78 -137.03   0.0020000
  -83.41   54.74   40.46   0.0020000
  165.59  175.29  -67.44   0.0020000
  -17.64   54.89  135.88   0.0020000
  146.01  124.13 -136.50   0.0020000
  -89.05   55.57  136.39   0.0020000
 -142.72  128.13  134.82   0.0020000
 -158.49  126.15  138.14   0.0020000
   18.49   77.28   -8.07   0.0020000
   23.70   53.59  134.45   0.0020000
    4.93   49.09   45.69   0.0020000
 -156.44   97.77    0.46   0.0020000
  -49.76  178.58   37.36   0.0020000
  -42.46   92.19  -99.54   0.0020000
  -50.70   88.55  179.57   0.0020000
 -121.41   85.45  176.00   0.0020000
  176.32  121.50 -141.94   0.0020000
  -97.16   90.86   89.53   0.0020000
   43.64  125.07  133.48   0.0020000
  -53.17  124.41  134.88   0.0020000
  179.57   54.30  133.70   0.0020000
 -171.90  125.79  136.22   0.0020000
 -144.25   52.69 -137.78   0.0020000
   60.85   94.36 -175.30   0.0020000
  -11.91   86.27   82.83   0.0020000
 -104.61   55.48   46.96   0.0020000
  -62.98   62.73 -147.18   0.0020000
 -170.51   90.79    5.01   0.0020000
   31.18  128.08   44.50   0.0020000
  107.90   88.66  -92.36   0.0020000
  -36.23   86.65  172.99   0.0020000
  107.41  125.61 -135.28   0.0020000
  -14.69    6.38 -176.56   0.0020000
  -36.25   89.65  -91.87   0.0020000
    1.67  126.09  133.83   0.0020000
   25.59  124.33   43.64   0.0020000
  107.29   88.35   -1.22   0.0020000
  161.56   57.97   40.10   0.0020000
  -67.76  123.09   48.10   0.0020000
   43.74   91.30  -89.15   0.0020000
  106.15  174.12   63.65   0.0020000
  -84.37   47.96  -37.49   0.0020000
   23.80  120.70   55.73   0.0020000
 -109.75   84.87   91.57   0.0020000
   10.81  127.11  134.62   0.0020000
   82.20  113.67 -153.68   0.0020000
  -32.97  123.88 -133.00   0.0020000
  169.02  124.46  -44.38   0.0020000
   81.40   38.72   42.59   0.0020000
   78.72  124.64 -136.05   0.0020000
   98.80   54.29   45.72   0.0020000
   21.32  169.77   18.87   0.0020000
  115.25  122.46   41.50   0.0020000
 -173.14  126.09 -136.24   0.0020000
   74.06   87.57    1.15   0.0020000
 -133.72  132.82   43.92   0.0020000
   46.91   54.88 -135.95   0.0020000
 -141.85  124.94   44.55   0.0020000
  118.08  126.00 -133.61   0.0020000
 -114.08  120.94   45.99   0.0020000
  -31.02  125.39  134.82   0.0020000
   94.06   92.15  -91.85   0.0020000
  111.34    9.75 -147.46   0.0020000
 -104.05   90.40  179.30   0.0020000
    5.68  110.22  -22.25   0.0020000
  -90.66   54.69   46.11   0.0020000
 -135.94  123.41   43.70   0.0020000
 -102.99   52.77 -134.88   0.0020000
  153.18   89.46   91.50   0.0020000
  -54.61   92.53   87.17   0.0020000
  165.85  102.62  175.33   0.0020000
 -152.61  124.73  -46.32   0.0020000
  124.37   55.16 -136.80   0.0020000
  161.65  167.60   -7.74   0.0020000
   19.88   91.34  -99.33   0.0020000
  118.15   56.99  135.06   0.0020000
  -31.47  175.88   19.29   0.0020000
  -50.27   93.11 -177.55   0.0020000
  113.50  127.37  -44.13   0.0020000
  132.99   54.32  136.57   0.0020000
 -125.56   54.91  -45.86   0.0020000
  -90.02    9.41  -65.05   0.0020000
   11.94  122.52  -66.39   0.0020000
   67.53   86.34  -88.64   0.0020000
 -117.25  131.20 -134.65   0.0020000
  -19.93   54.90  -46.51   0.0020000
   51.97   52.72  -45.62   0.0020000
  -33.69   55.87   48.74   0.0020000
 -106.00   55.94  -50.66   0.0020000
   21.21  125.78  134.34   0.0020000
 -177.50  126.99  135.60   0.0020000
  163.53   53.08  134.34   0.0020000
 -101.24  125.34  -43.59   0.0020000
   35.68   90.45  179.42   0.0020000
    7.87  123.63  -44.86   0.0020000
   88.96   54.51 -135.17   0.0020000
  171.29  126.33  134.47   0.0020000
  131.51  119.05  125.76   0.0020000
  134.87  166.88  139.53   0.0020000
  134.66   92.68  -80.39   0.0020000
 -121.21   92.28  -85.38   0.0020000
  144.22   54.23  135.73   0.0020000
   38.59   86.44   85.89   0.0020000
 -168.91  126.23 -134.67   0.0020000
  -71.48  126.51  -46.39   0.0020000
 -168.80   54.56 -133.89   0.0020000
   78.80   54.23   44.18   0.0020000
   65.56   55.16  -46.30   0.0020000
   44.10   15.60  -55.44   0.0020000
 -158.83   43.07  127.43   0.0020000
 -161.64   93.35    6.82   0.0020000
 -129.21   53.13  -44.76   0.0020000
   51.35   55.43 -137.62   0.0020000
 -143.97  123.24  -45.65   0.0020000
 -166.21  108.65  -96.19   0.0020000
 -112.69  125.11 -137.45   0.0020000
 -109.66   55.26  136.80   0.0020000
  -87.36   56.30   45.50   0.0020000
 -164.71  123.84   45.89   0.0020000
  123.31  127.77  -44.76   0.0020000
  -34.54   56.01 -132.51   0.0020000
    6.52   89.86  -91.59   0.0020000
  125.98  166.33  -93.32   0.0020000
  -20.09   54.81 -136.38   0.0020000
  -59.40  123.56   42.37   0.0020000
  -65.40   58.69 -140.85   0.0020000
  156.57   53.93 -135.75   0.0020000
   22.57  178.93 -101.31   0.0020000
   65.94  125.86  135.69   0.0020000
  109.43   89.81 -177.95   0.0020000
   10.53  125.41 -135.98   0.0020000
  116.31  126.49 -133.75   0.0020000
   -4.66   55.23   46.06   0.0020000
 -111.97  122.73  140.67   0.0020000
 -159.70  123.52  -30.68   0.0020000
 -154.53  124.63  -46.93   0.0020000
  -83.29  129.40  135.14   0.0020000
    1.14   55.59   42.83   0.0020000
  174.74  121.74  124.94   0.0020000
   59.28   55.14 -136.02   0.0020000
 -176.58  127.04 -136.51   0.0020000
  -57.80   48.51 -128.43   0.0020000
  148.59  124.05  -43.18   0.0020000
   33.46    2.36 -139.32   0.0020000
   60.70   54.78  134.66   0.0020000
 -118.27   50.78  -38.62   0.0020000
  -70.78   54.78  136.56   0.0020000
 -146.73   88.73    3.51   0.0020000
   90.47   98.65   96.78   0.0020000
   44.39  122.35  -39.75   0.0020000
   -9.25   56.61   43.92   0.0020000
    5.73  124.59  133.67   0.0020000
   55.69  177.78 -137.07   0.0020000
  -69.60  126.40  134.19   0.0020000
 -175.72    6.47 -164.23   0.0020000
   95.40  122.25  -50.41   0.0020000
  -66.94   95.89  175.48   0.0020000
  106.25   50.89  130.25   0.0020000
 -172.61    6.95  -36.11   0.0020000
   70.85  124.50   45.19   0.0020000
  117.12   53.17   43.99   0.0020000
  178.95  123.25 -138.09   0.0020000
 -164.60   52.06 -134.76   0.0020000
  118.40  124.91 -133.92   0.0020000
  -94.65   54.71  -45.36   0.0020000
 -111.90   55.70  132.44   0.0020000
  156.36   86.59   85.34   0.0020000
  -76.13   55.43 -136.45   0.0020000
   42.53  122.77  132.60   0.0020000
 -158.95   56.17   47.04   0.0020000
  -14.01  119.38  -35.20   0.0020000
  -13.03  126.14   44.80   0.0020000
   40.38   54.48  133.56   0.0020000
    8.12   99.00   90.71   0.0020000
 -152.11    2.82 -137.55   0.0020000
  -41.71   57.33  136.34   0.0020000
  -42.31   53.98   39.65   0.0020000
    6.51  126.84  136.11   0.0020000
 -124.76  125.94  -44.58   0.0020000
  158.83    6.55  125.29   0.0020000
  -40.94  124.63 -131.93   0.0020000
   49.96  124.16 -134.24   0.0020000
 -122.82  124.12  -47.38   0.0020000
   18.84  171.16  118.25   0.0020000
  -66.11  126.43   43.56   0.0020000
  -81.41   55.58   43.37   0.0020000
 -125.04  126.92  -44.67   0.0020000
 -164.78   53.88 -134.87   0.0020000
    4.60   55.29  135.51   0.0020000
   36.81   88.15    0.65   0.0020000
 -166.85  124.19 -133.70   0.0020000
   59.96   51.58  -41.05   0.0020000
  141.64    5.79 -145.11   0.0020000
  112.15   88.58 -178.24   0.0020000
 -101.73   53.98  134.65   0.0020000
  -99.35   88.39  177.53   0.0020000
  119.05  124.12  133.62   0.0020000
  153.08  171.68 -126.81   0.0020000
 -128.76   95.70    2.72   0.0020000
 -137.73   84.17   86.41   0.0020000
   59.56   55.24   49.43   0.0020000
  159.28  175.53  -37.28   0.0020000
 -167.30  118.18  -44.15   0.0020000
  -58.72  104.88    1.74   0.0020000
  105.28   87.77   -2.36   0.0020000
   28.02  124.65   45.54   0.0020000
   -7.61  124.89   45.25   0.0020000
 -120.55   92.52  -83.05   0.0020000
