TEXTURE AT STRAIN =    1.0000
   0.605   2.692   0.605  <-- length of average ellipsoid axes for phase
  178.22   90.00  180.00  <-- Euler angles of average ellipsoid axes for phase
B       500
  108.68  125.10   44.75   0.0020000
 -116.75   50.49   45.03   0.0020000
  167.68   39.53   45.01   0.0020000
  146.43   61.79   32.61   0.0020000
  144.82   85.94    3.08   0.0020000
 -106.59    0.00    0.00   0.0020000
   16.38   59.21  -36.80   0.0020000
 -156.05  175.83  -17.43   0.0020000
  -48.14   54.92  134.90   0.0020000
  -66.66  125.63 -135.26   0.0020000
  -17.78  172.24  -48.43   0.0020000
   66.01  179.11  109.29   0.0020000
   40.86   55.01   44.86   0.0020000
   24.98  117.87  148.26   0.0020000
   49.92  121.11  -36.90   0.0020000
  -89.52   87.94  178.45   0.0020000
  111.27    1.71 -167.42   0.0020000
   86.92   70.02   21.20   0.0020000
   73.82   54.99 -135.68   0.0020000
  -57.21   14.33  139.29   0.0020000
 -145.58  124.78  -43.88   0.0020000
   -8.73  147.10 -134.91   0.0020000
  -76.48    2.59   46.38   0.0020000
  179.37   43.33 -135.03   0.0020000
  129.61   82.75   80.78   0.0020000
  116.84  123.09  -48.93   0.0020000
  -63.46   90.30  -89.22   0.0020000
   -7.81   67.86  156.11   0.0020000
  -86.11   90.01  -91.25   0.0020000
  -38.90  125.36  -44.75   0.0020000
  118.79   83.37   82.43   0.0020000
   19.38   54.55  -44.88   0.0020000
 -177.10  125.05  134.41   0.0020000
  -86.85   76.66 -103.79   0.0020000
  -42.69  125.54 -134.97   0.0020000
   35.64   55.08 -134.09   0.0020000
   22.98  126.25 -134.96   0.0020000
 -113.84   75.32 -166.09   0.0020000
 -122.92  111.61  113.39   0.0020000
   27.54   86.77   88.08   0.0020000
 -132.29  125.51   45.34   0.0020000
  114.61   88.63   90.98   0.0020000
  165.18   76.61 -166.48   0.0020000
  -60.20   54.68  134.92   0.0020000
  171.15   58.36 -127.84   0.0020000
 -153.53   95.20 -165.95   0.0020000
 -107.31   54.70   43.15   0.0020000
  129.99   55.29  134.77   0.0020000
  -52.63   54.66 -136.24   0.0020000
  -91.20   48.39 -135.38   0.0020000
  -95.46   15.71  -46.83   0.0020000
  -58.58   96.32  172.47   0.0020000
   37.28  125.17 -134.91   0.0020000
  167.64  169.19  -44.05   0.0020000
   70.75   54.74 -134.91   0.0020000
  -95.31  116.69  -30.22   0.0020000
   85.02  123.23  -49.05   0.0020000
  -25.18   54.05   44.45   0.0020000
  -86.68    0.00    0.00   0.0020000
   46.92   89.76   92.52   0.0020000
  158.84    1.13  -11.42   0.0020000
  -21.90  122.42  140.63   0.0020000
 -103.76   55.09 -134.98   0.0020000
  166.05  178.35  -65.61   0.0020000
  -52.61   55.40 -135.04   0.0020000
  164.93   54.80 -135.14   0.0020000
   21.17  132.82 -134.96   0.0020000
   41.12  125.34 -134.99   0.0020000
  -94.23   29.26   45.29   0.0020000
 -135.84   54.90 -135.48   0.0020000
   26.78   69.86   21.74   0.0020000
   -3.90   94.41  176.00   0.0020000
  112.66    6.35  137.11   0.0020000
 -117.80   76.42  -74.70   0.0020000
   59.48  174.76  126.07   0.0020000
  -60.33  178.60   22.95   0.0020000
    9.85  138.63 -135.02   0.0020000
  163.75   54.31   45.01   0.0020000
  134.37   82.01   83.61   0.0020000
    4.94  127.65   45.05   0.0020000
  177.70   64.84  152.15   0.0020000
   72.19    3.08  169.63   0.0020000
  -30.62  159.49  134.35   0.0020000
  -50.95  104.17 -165.67   0.0020000
   88.06    0.00    0.00   0.0020000
  156.02   81.50 -172.51   0.0020000
 -179.76   57.03  138.76   0.0020000
   55.17   90.02   92.55   0.0020000
   11.60  125.23   45.37   0.0020000
   12.64   55.25  -45.49   0.0020000
  145.28    8.41   27.21   0.0020000
   76.33   13.18   41.95   0.0020000
   94.98   86.93  177.12   0.0020000
   30.16  125.53 -134.82   0.0020000
  -51.94   91.13   -0.42   0.0020000
 -173.92  130.64 -134.98   0.0020000
  124.33  125.57  134.89   0.0020000
   71.95   63.83  -60.42   0.0020000
  102.20  125.00  -45.28   0.0020000
 -175.82   86.18   84.73   0.0020000
   77.53   55.00  -44.67   0.0020000
  179.99   89.19   89.17   0.0020000
  128.30   54.79   44.61   0.0020000
  172.39  125.70  134.79   0.0020000
   40.28   90.49   89.89   0.0020000
  126.03  118.08  -56.90   0.0020000
   34.89    6.06   28.26   0.0020000
  -35.57   54.77  134.98   0.0020000
    0.29  125.23 -134.64   0.0020000
  -22.17   72.97 -108.08   0.0020000
   17.66   49.94 -134.91   0.0020000
   55.84  123.84   48.18   0.0020000
  -80.63  125.18  134.81   0.0020000
 -143.80   54.98 -135.81   0.0020000
  117.49   98.55  -98.47   0.0020000
  126.37  125.24  -44.79   0.0020000
   70.76   54.99   44.57   0.0020000
  -72.50   54.32  -45.14   0.0020000
 -145.08  113.56   25.85   0.0020000
    1.16  153.69  -43.63   0.0020000
   30.15    5.48  -46.21   0.0020000
   12.80   90.68   90.10   0.0020000
   67.00   76.77  169.76   0.0020000
  -89.58   54.81  135.25   0.0020000
 -148.04  142.68   44.89   0.0020000
  105.82  130.70   44.62   0.0020000
   88.85   89.77  -89.59   0.0020000
 -168.14  125.41  -45.09   0.0020000
 -160.35   54.65 -135.03   0.0020000
  -33.54  175.91 -108.18   0.0020000
    8.07   88.00    0.98   0.0020000
 -121.09  119.76  124.95   0.0020000
   43.01   91.70  -92.06   0.0020000
  -95.73   54.55  -45.86   0.0020000
 -149.02  125.16 -135.97   0.0020000
  -95.94  125.06  -44.70   0.0020000
  -82.03   83.03   86.69   0.0020000
  165.18   65.54  153.03   0.0020000
  -74.55   87.28    3.81   0.0020000
   26.72  125.09  135.96   0.0020000
  -44.74  134.75  134.91   0.0020000
  141.34  126.02  134.43   0.0020000
 -176.63   85.15   90.55   0.0020000
   91.90   23.12   45.40   0.0020000
 -154.68   96.39   84.58   0.0020000
  148.81  124.84   44.78   0.0020000
  132.68   55.02  134.06   0.0020000
   94.95   90.27   93.06   0.0020000
   29.36   90.12  -89.94   0.0020000
   86.70   55.11  134.86   0.0020000
 -169.89  125.24   45.30   0.0020000
  -50.97  125.08  -45.07   0.0020000
   65.32   77.24   12.83   0.0020000
 -113.62   57.29   49.97   0.0020000
  -99.71   85.75  -96.01   0.0020000
   99.76  146.54  135.25   0.0020000
  -95.49  125.86  -45.65   0.0020000
   47.81  146.68   45.07   0.0020000
  158.55   90.79   88.39   0.0020000
  173.46   86.03 -171.64   0.0020000
   17.43  124.34   47.41   0.0020000
  115.12   67.74 -156.74   0.0020000
 -111.59  124.77   44.09   0.0020000
 -138.13  125.38 -135.11   0.0020000
   90.98   55.48   46.61   0.0020000
   50.22  125.20   45.07   0.0020000
  -32.25   48.10  134.96   0.0020000
   99.66    1.82  142.82   0.0020000
  103.79   89.96  179.48   0.0020000
  124.07   55.01  135.82   0.0020000
  -41.29  123.27 -131.06   0.0020000
  -61.58  170.38  -41.19   0.0020000
 -173.11    4.52 -179.37   0.0020000
 -102.55   92.86   -6.84   0.0020000
  -79.31  125.62   44.13   0.0020000
  138.92  117.75  -31.93   0.0020000
  165.53  124.92  135.00   0.0020000
 -152.39  119.04 -146.35   0.0020000
 -109.86  122.00  -51.36   0.0020000
  110.59   83.78  -86.15   0.0020000
    1.66   54.15   45.86   0.0020000
  114.45   89.48 -178.81   0.0020000
 -125.75  123.63  131.49   0.0020000
 -100.71   54.81 -134.92   0.0020000
  129.78  124.95  134.54   0.0020000
  113.27   54.55   44.25   0.0020000
  161.81   56.34 -138.38   0.0020000
   33.03  118.67   57.01   0.0020000
 -155.54  120.84 -143.21   0.0020000
  146.46   80.12  -79.58   0.0020000
 -154.50   56.87  -49.57   0.0020000
  142.96   54.65  -45.07   0.0020000
  -76.68  125.54  -44.86   0.0020000
  -78.03   89.93   89.26   0.0020000
  -58.83   76.97  165.78   0.0020000
   72.37   92.37   -0.10   0.0020000
  156.79  175.95 -163.30   0.0020000
   36.12  178.46   78.04   0.0020000
   81.22  131.65 -134.98   0.0020000
 -122.00   54.75   43.79   0.0020000
   66.30  166.45  140.98   0.0020000
   25.34  125.38   44.91   0.0020000
   18.97  124.90 -134.39   0.0020000
   98.03   87.09  -92.56   0.0020000
  -30.51   93.32   -2.47   0.0020000
   40.82   63.10  -59.34   0.0020000
  100.57  160.08  -42.65   0.0020000
 -100.68   94.66    0.01   0.0020000
   95.09    9.48   50.64   0.0020000
  -65.42  125.34  -45.34   0.0020000
  -69.03   55.28 -133.45   0.0020000
  172.48   15.86   40.27   0.0020000
  -54.83  140.67 -135.08   0.0020000
   25.31   89.26  179.54   0.0020000
  176.69  180.00    0.00   0.0020000
  104.59   83.20  -79.19   0.0020000
   22.46  125.08 -134.92   0.0020000
   -4.59   26.03 -135.02   0.0020000
   17.13   71.03 -159.77   0.0020000
 -156.31   79.71  170.25   0.0020000
   72.07  132.69  -44.90   0.0020000
 -159.42   88.57    3.11   0.0020000
 -167.52   54.94 -135.25   0.0020000
  -33.71  125.60  -45.21   0.0020000
  -45.12   89.20  179.22   0.0020000
  129.13   61.45 -147.01   0.0020000
  -29.99   96.82 -176.96   0.0020000
  -17.25   78.07   12.31   0.0020000
 -139.81   53.29 -135.19   0.0020000
 -147.97   89.86  -90.19   0.0020000
  -71.09   88.05  -91.32   0.0020000
  -10.83   85.96    4.82   0.0020000
  155.31  178.34   76.02   0.0020000
  141.85   54.87   45.57   0.0020000
  166.94  130.15  135.05   0.0020000
 -155.03   90.81   91.57   0.0020000
  165.82   95.70  -96.19   0.0020000
 -111.33   96.82  172.28   0.0020000
   59.82   83.14  -97.33   0.0020000
 -133.47   89.84 -178.97   0.0020000
   21.73   88.46   -0.09   0.0020000
   60.34   63.34 -119.73   0.0020000
  -11.39  126.81   45.10   0.0020000
  -63.30  176.31  -88.42   0.0020000
  -34.97   88.93  -90.22   0.0020000
  -71.79  124.62   46.34   0.0020000
 -118.30  119.40 -145.74   0.0020000
  111.59  125.53 -135.12   0.0020000
 -114.37  125.17   45.06   0.0020000
  -76.37   92.89  179.52   0.0020000
  -96.59   92.34   90.20   0.0020000
  119.71   87.59  -90.08   0.0020000
  -93.08   82.00 -173.98   0.0020000
  -37.89   82.32  175.49   0.0020000
   -2.47   54.70  134.72   0.0020000
  139.52   53.42   44.99   0.0020000
  -51.25  145.99 -135.82   0.0020000
   34.00  124.89   44.49   0.0020000
   19.48  125.59  -44.99   0.0020000
  119.55  124.79 -134.91   0.0020000
 -121.17   81.93 -172.73   0.0020000
  -86.41   89.65  -88.13   0.0020000
  -48.92  126.62   45.04   0.0020000
  123.81   53.60  134.72   0.0020000
 -147.62  148.32  135.00   0.0020000
  -20.32   54.65  -45.09   0.0020000
    4.34  168.09   39.53   0.0020000
  -92.73  176.09    9.44   0.0020000
 -151.96   93.41  -81.26   0.0020000
  -61.40  119.10 -123.85   0.0020000
  -43.39  125.00  134.79   0.0020000
 -174.10  126.36 -134.85   0.0020000
 -109.91  124.98  -45.69   0.0020000
  -79.01  124.68  134.18   0.0020000
  -90.89  125.24  134.83   0.0020000
    8.43  125.47  -45.38   0.0020000
 -129.59  124.89  -43.49   0.0020000
 -170.45  113.14   25.33   0.0020000
  101.37  150.60  135.37   0.0020000
   48.68  125.27   45.13   0.0020000
 -110.10  125.34  -45.26   0.0020000
  153.29   54.91  -44.92   0.0020000
 -101.90  125.67 -135.23   0.0020000
   75.22   85.71   91.49   0.0020000
 -113.24  175.40 -151.10   0.0020000
 -100.03  125.07  -45.11   0.0020000
   58.30  109.92  111.16   0.0020000
  150.81   58.98   53.06   0.0020000
  -26.01  124.40 -136.78   0.0020000
  -15.81    6.61 -135.08   0.0020000
  -82.34  125.46   45.21   0.0020000
   15.55   54.46  135.11   0.0020000
   58.26   58.76 -142.56   0.0020000
  -79.13   59.96   35.06   0.0020000
  165.31  177.10  -66.83   0.0020000
  -17.94   54.91  135.26   0.0020000
  145.33  123.62 -138.00   0.0020000
  -88.83   55.59  136.67   0.0020000
 -142.99  142.21  134.90   0.0020000
 -157.69  125.03  136.63   0.0020000
   26.90   82.02   -6.08   0.0020000
   22.45   53.96  134.86   0.0020000
    1.14   24.19   45.37   0.0020000
 -155.94   94.45   -0.05   0.0020000
  -87.16  180.00    0.00   0.0020000
  -38.73   91.56  -95.39   0.0020000
  -50.73   89.33  179.79   0.0020000
 -120.82   86.53  176.71   0.0020000
  165.75  104.17 -165.30   0.0020000
  -97.14   90.46   89.78   0.0020000
   42.65  125.00  134.08   0.0020000
  -52.62  124.96  134.82   0.0020000
  179.83   54.55  134.42   0.0020000
 -171.87  125.36  135.54   0.0020000
 -147.27   52.88 -135.65   0.0020000
   60.44   93.48 -176.25   0.0020000
  -15.88   86.81   85.23   0.0020000
 -105.88   56.89   49.33   0.0020000
  -48.50   79.33 -168.36   0.0020000
 -171.31   90.41    2.80   0.0020000
   30.67  141.85   45.04   0.0020000
  107.80   89.10  -91.39   0.0020000
  -40.12   86.95  175.26   0.0020000
  107.70  125.34 -135.06   0.0020000
  -14.98    3.65 -175.65   0.0020000
  -36.29   89.83  -90.91   0.0020000
    2.93  125.73  134.62   0.0020000
   25.22  124.34   43.11   0.0020000
  107.31   89.05   -0.70   0.0020000
  174.13   69.83   21.51   0.0020000
  -58.37  114.07   63.44   0.0020000
   43.76   90.57  -89.57   0.0020000
  101.87  175.62   57.41   0.0020000
  -77.20   39.75  -44.80   0.0020000
   24.51  104.57   75.46   0.0020000
 -111.23   86.95   91.13   0.0020000
   11.56  130.55  135.02   0.0020000
   75.99   98.53 -171.11   0.0020000
  -28.88  120.66 -126.35   0.0020000
  167.80  124.84  -44.57   0.0020000
   89.40   16.61   43.00   0.0020000
   79.31  124.96 -135.60   0.0020000
   99.28   54.57   45.38   0.0020000
   24.29  173.19   27.40   0.0020000
  104.93  113.21   25.58   0.0020000
 -171.91  125.59 -135.41   0.0020000
   74.04   88.61    0.64   0.0020000
 -139.17  157.48   44.34   0.0020000
   47.26   54.83 -135.33   0.0020000
 -141.49  125.15   44.84   0.0020000
  116.90  125.56 -134.43   0.0020000
 -116.08  123.53   47.03   0.0020000
  -30.99  125.31  134.91   0.0020000
   93.98   91.14  -91.03   0.0020000
  110.09    7.78 -141.54   0.0020000
 -104.03   90.25  179.66   0.0020000
   11.55   98.57   -8.86   0.0020000
  -91.31   54.74   45.40   0.0020000
 -135.59  123.44   41.65   0.0020000
 -103.04   47.04 -135.08   0.0020000
  153.20   89.72   90.67   0.0020000
  -54.47   91.66   88.25   0.0020000
  159.63   97.27  176.35   0.0020000
 -152.52  124.79  -45.96   0.0020000
  124.92   55.69 -137.07   0.0020000
  160.00  173.09  -11.96   0.0020000
   22.50   91.39  -95.37   0.0020000
  118.64   55.58  135.28   0.0020000
  -31.03  177.65   20.35   0.0020000
  -50.12   92.27 -178.07   0.0020000
  112.80  134.23  -44.87   0.0020000
  132.17   54.68  135.83   0.0020000
 -125.18   54.73  -45.38   0.0020000
  -92.21    6.79  -57.41   0.0020000
    9.57  106.90  -74.03   0.0020000
   67.14   87.77  -89.10   0.0020000
 -115.15  156.01 -135.03   0.0020000
  -18.71   55.22  -46.11   0.0020000
   51.83   47.58  -44.96   0.0020000
  -38.36   65.18   62.36   0.0020000
 -101.14   67.19  -65.30   0.0020000
   22.15  125.54  134.87   0.0020000
 -178.05  129.05  135.09   0.0020000
  163.08   51.64  134.91   0.0020000
 -100.54  125.18  -44.43   0.0020000
   35.67   90.19  179.77   0.0020000
    7.51  124.67  -44.81   0.0020000
   88.76   54.64 -134.91   0.0020000
  172.44  125.83  134.91   0.0020000
  116.78  104.11  105.06   0.0020000
  136.36  170.97  137.49   0.0020000
  129.81   92.83  -84.07   0.0020000
 -122.52   91.73  -87.06   0.0020000
  144.82   54.54  135.31   0.0020000
   38.02   87.16   86.97   0.0020000
 -169.96  125.69 -134.88   0.0020000
  -69.44  126.12  -45.53   0.0020000
 -169.64   54.64 -134.63   0.0020000
   78.06   54.52   44.84   0.0020000
   65.38   55.12  -45.83   0.0020000
   47.10   11.09  -49.52   0.0020000
 -161.98   25.77  133.75   0.0020000
 -165.24   92.68    4.36   0.0020000
 -128.58   51.40  -45.05   0.0020000
   54.49   60.37 -145.27   0.0020000
 -142.52  124.37  -45.84   0.0020000
 -171.84   99.59  -94.79   0.0020000
 -113.99  123.38 -139.13   0.0020000
 -110.29   55.84  137.40   0.0020000
  -85.84   55.41   45.51   0.0020000
 -166.01  124.29   46.48   0.0020000
  123.28  139.28  -44.90   0.0020000
  -39.66   61.55 -122.98   0.0020000
    6.48   89.96  -90.71   0.0020000
  120.94  172.53  -99.82   0.0020000
  -18.82   55.06 -135.83   0.0020000
  -66.91  116.21   29.38   0.0020000
  -51.15   73.09 -162.08   0.0020000
  155.13   54.36 -135.22   0.0020000
  123.87  180.00    0.00   0.0020000
   64.79  125.59  135.29   0.0020000
  109.47   89.91 -178.97   0.0020000
    9.80  125.36 -135.29   0.0020000
  113.73  126.24 -134.64   0.0020000
   -4.31   55.08   45.50   0.0020000
 -105.59  107.55  161.55   0.0020000
 -156.71  110.34  -21.40   0.0020000
 -155.42  123.60  -48.37   0.0020000
  -82.72  148.90  134.91   0.0020000
    4.21   58.90   37.22   0.0020000
  172.67  105.57  105.62   0.0020000
   58.90   54.95 -135.44   0.0020000
 -174.35  127.75 -135.24   0.0020000
  -51.54   40.23 -134.80   0.0020000
  151.72  121.84  -38.56   0.0020000
   31.02    1.25 -136.84   0.0020000
   60.49   54.74  134.98   0.0020000
 -112.04   51.08  -44.21   0.0020000
  -71.71   55.04  135.90   0.0020000
 -146.35   89.07    2.09   0.0020000
   94.22   96.46   95.83   0.0020000
   55.00  108.21  -19.19   0.0020000
   -9.89   56.28   42.45   0.0020000
    5.38  124.68  133.71   0.0020000
   57.50  178.71 -135.26   0.0020000
  -67.91  126.07  134.66   0.0020000
 -172.98    3.81 -164.92   0.0020000
   84.68  107.31  -71.67   0.0020000
  -68.64   94.38  176.39   0.0020000
  101.02   49.34  134.61   0.0020000
 -170.52    5.56  -40.06   0.0020000
   70.23  125.06   45.14   0.0020000
  115.40   52.50   44.94   0.0020000
  170.12  114.67 -152.53   0.0020000
 -164.55   39.10 -135.03   0.0020000
  118.81  125.00 -134.45   0.0020000
  -94.74   54.69  -45.15   0.0020000
 -108.08   60.38  124.50   0.0020000
  155.31   87.05   86.39   0.0020000
  -75.83   55.49 -136.56   0.0020000
   35.16  116.35  119.74   0.0020000
 -163.90   59.96   54.70   0.0020000
   -1.19  101.92  -12.41   0.0020000
  -12.21  125.69   44.96   0.0020000
   41.18   54.78  134.35   0.0020000
    9.17   95.07   90.26   0.0020000
 -150.29    1.66 -139.39   0.0020000
  -41.32   56.93  138.66   0.0020000
  -39.53   57.38   39.19   0.0020000
    5.19  127.48  135.25   0.0020000
 -125.84  125.53  -44.94   0.0020000
  158.03    5.01  127.66   0.0020000
  -36.65  118.25 -122.39   0.0020000
   48.53  124.83 -134.25   0.0020000
 -126.83  119.42  -55.72   0.0020000
   20.77  173.56  124.66   0.0020000
  -64.23  125.98   44.43   0.0020000
  -80.71   56.02   42.37   0.0020000
 -125.43  128.49  -45.04   0.0020000
 -164.02   54.27 -135.04   0.0020000
    5.54   55.00  135.14   0.0020000
   36.80   89.00    0.44   0.0020000
 -166.75  123.95 -132.58   0.0020000
   64.29   50.90  -44.38   0.0020000
  140.23    4.46 -142.60   0.0020000
  112.24   89.26 -179.14   0.0020000
 -102.81   54.35  134.85   0.0020000
  -99.43   89.07  178.53   0.0020000
  118.81  123.87  132.46   0.0020000
  152.24  173.68 -130.29   0.0020000
 -126.62   93.76    2.09   0.0020000
 -135.53   86.11   87.17   0.0020000
   54.36   64.20   61.20   0.0020000
  157.39  176.97  -39.57   0.0020000
 -168.96  123.08  -42.97   0.0020000
  -56.27   97.91    1.93   0.0020000
  105.24   88.44   -1.59   0.0020000
   27.05  125.14   45.32   0.0020000
   -7.86  125.19   45.12   0.0020000
 -123.98   91.88  -85.81   0.0020000
