TEXTURE AT STRAIN =    1.0000
   0.605   2.692   0.605  <-- length of average ellipsoid axes for phase
  180.00   90.00  180.00  <-- Euler angles of average ellipsoid axes for phase
B       500
  108.43  124.81   44.10   0.0020000
 -116.97   41.37   44.93   0.0020000
  167.64   36.56   44.95   0.0020000
  147.43   64.29   28.73   0.0020000
  144.71   85.93    3.41   0.0020000
 -106.59    0.55    0.00   0.0020000
   12.92   63.36  -30.12   0.0020000
 -160.93  176.33  -22.43   0.0020000
  -48.15   54.94  134.89   0.0020000
  -66.57  126.77 -135.15   0.0020000
  -15.60  170.98  -46.15   0.0020000
  -43.31  179.27    0.00   0.0020000
   40.72   55.29   44.20   0.0020000
   25.98  115.29  151.90   0.0020000
   52.88  116.30  -29.56   0.0020000
  -89.45   88.11  178.44   0.0020000
  107.06    1.43 -163.08   0.0020000
   85.55   67.63   24.29   0.0020000
   75.95   57.20 -139.95   0.0020000
  -54.03   19.79  135.64   0.0020000
 -142.24  121.27  -37.43   0.0020000
   -8.49  145.90 -134.91   0.0020000
  -76.11    2.59   45.99   0.0020000
  179.41   37.62 -135.06   0.0020000
  129.61   79.14   78.43   0.0020000
  112.17  117.98  -57.76   0.0020000
  -63.47   90.28  -89.38   0.0020000
   -7.49   67.11  155.10   0.0020000
  -86.12   90.00  -90.98   0.0020000
  -38.51  125.31  -44.51   0.0020000
  118.94   80.16   79.80   0.0020000
   19.73   54.07  -44.86   0.0020000
 -178.76  123.86  132.08   0.0020000
  -84.67   70.20 -111.25   0.0020000
  -43.00  126.19 -134.96   0.0020000
   33.05   57.60 -129.32   0.0020000
   23.13  131.83 -134.93   0.0020000
 -115.43   71.72 -160.91   0.0020000
 -122.98  113.07  115.16   0.0020000
   27.62   87.07   88.01   0.0020000
 -132.44  125.75   45.44   0.0020000
  114.59   88.87   90.80   0.0020000
  162.96   70.36 -159.24   0.0020000
  -60.53   54.50  134.95   0.0020000
  168.27   63.21 -120.26   0.0020000
 -153.38   92.27 -168.44   0.0020000
 -105.24   55.88   41.51   0.0020000
  130.08   55.75  133.48   0.0020000
  -51.05   55.25 -137.15   0.0020000
  -92.22   41.81 -135.16   0.0020000
  -96.57   24.78  -45.23   0.0020000
  -58.50   98.57  170.97   0.0020000
   37.17  125.03 -134.90   0.0020000
  166.79  165.42  -44.98   0.0020000
   70.74   54.73 -134.99   0.0020000
  -95.20  115.02  -27.84   0.0020000
   80.40  117.49  -58.54   0.0020000
  -26.41   51.84   44.74   0.0020000
  -86.68    0.46    0.00   0.0020000
   47.05   89.64   92.07   0.0020000
  157.09    0.88   -9.66   0.0020000
  -17.31  116.98  149.51   0.0020000
 -103.60   55.29 -134.74   0.0020000
  164.98  178.68  -66.64   0.0020000
  -52.48   55.55 -135.03   0.0020000
  165.00   54.91 -135.29   0.0020000
   20.29  140.97 -134.94   0.0020000
   41.04  125.27 -135.03   0.0020000
  -93.85   32.04   44.99   0.0020000
 -135.18   55.74 -137.12   0.0020000
   26.25   67.24   24.91   0.0020000
   -4.01   95.02  175.26   0.0020000
  114.22    7.76  135.51   0.0020000
 -118.72   72.20  -71.00   0.0020000
   63.95  173.96  130.74   0.0020000
  -59.43  178.89   23.87   0.0020000
    9.11  142.56 -134.96   0.0020000
  163.84   52.94   44.99   0.0020000
  135.26   79.88   80.26   0.0020000
    4.89  137.25   45.06   0.0020000
  178.42   65.41  152.82   0.0020000
   78.70    2.67  162.91   0.0020000
  -30.46  151.77  135.02   0.0020000
  -48.43  110.60 -158.03   0.0020000
   88.07    0.28    0.00   0.0020000
  155.13   78.94 -169.13   0.0020000
  178.29   60.07  144.62   0.0020000
   55.23   89.92   92.07   0.0020000
   12.08  124.86   46.02   0.0020000
   13.76   56.37  -48.00   0.0020000
  138.22    8.78   34.63   0.0020000
   74.02   20.05   44.80   0.0020000
   95.01   86.76  176.87   0.0020000
   30.17  125.76 -134.82   0.0020000
  -51.96   90.88   -0.28   0.0020000
 -173.86  140.18 -135.07   0.0020000
  124.24  126.97  134.91   0.0020000
   73.95   65.12  -62.31   0.0020000
  101.86  124.49  -46.41   0.0020000
 -175.97   85.09   84.30   0.0020000
   77.64   55.31  -43.96   0.0020000
  179.98   89.35   89.32   0.0020000
  129.29   55.43   43.33   0.0020000
  172.65  127.79  134.85   0.0020000
   40.28   90.36   89.90   0.0020000
  125.66  115.78  -60.81   0.0020000
   28.44    6.14   34.97   0.0020000
  -35.67   54.69  135.06   0.0020000
    0.86  124.89 -134.03   0.0020000
  -21.04   68.42 -113.33   0.0020000
   16.91   40.49 -134.90   0.0020000
   60.23  118.16   57.70   0.0020000
  -80.40  125.15  134.79   0.0020000
 -141.67   57.13 -139.87   0.0020000
  116.85  101.59 -101.86   0.0020000
  126.45  125.28  -44.74   0.0020000
   72.09   56.34   41.76   0.0020000
  -72.86   52.33  -45.07   0.0020000
 -144.01  113.84   26.16   0.0020000
    0.38  154.70  -44.11   0.0020000
   29.14    6.05  -45.18   0.0020000
   12.81   90.51   90.07   0.0020000
   66.85   77.96  170.01   0.0020000
  -89.86   55.10  135.82   0.0020000
 -149.02  144.07   44.86   0.0020000
  107.24  136.71   44.90   0.0020000
   88.85   89.82  -89.70   0.0020000
 -167.84  125.81  -45.12   0.0020000
 -160.42   54.70 -135.00   0.0020000
  -40.94  176.09 -115.85   0.0020000
    7.95   88.26    0.99   0.0020000
 -123.99  116.22  119.46   0.0020000
   43.08   91.80  -92.06   0.0020000
  -94.75   54.97  -46.53   0.0020000
 -151.14  123.79 -138.36   0.0020000
  -95.13  124.22  -42.86   0.0020000
  -81.49   83.25   85.36   0.0020000
  164.42   65.58  153.05   0.0020000
  -74.46   87.01    3.74   0.0020000
   29.08  122.74  140.19   0.0020000
  -45.44  141.73  135.01   0.0020000
  142.19  127.67  134.58   0.0020000
 -176.83   85.87   90.76   0.0020000
   91.66   31.02   45.08   0.0020000
 -155.16   97.95   82.31   0.0020000
  148.44  124.41   43.62   0.0020000
  135.51   57.66  129.12   0.0020000
   94.84   90.34   92.52   0.0020000
   29.36   90.08  -89.95   0.0020000
   86.85   55.59  133.57   0.0020000
 -169.39  125.15   45.52   0.0020000
  -50.88  125.00  -45.00   0.0020000
   62.84   70.66   20.60   0.0020000
 -118.83   62.88   59.10   0.0020000
  -99.91   84.28  -96.66   0.0020000
  100.32  145.18  135.11   0.0020000
  -94.36  127.12  -45.43   0.0020000
   46.99  145.46   45.07   0.0020000
  158.60   90.67   88.68   0.0020000
  173.78   84.88 -172.18   0.0020000
   21.81  119.35   55.92   0.0020000
  116.37   69.59 -158.77   0.0020000
 -114.21  122.30   39.16   0.0020000
 -137.84  125.52 -135.11   0.0020000
   86.65   59.80   54.52   0.0020000
   50.17  125.07   45.06   0.0020000
  -32.21   39.26  135.01   0.0020000
  101.95    1.68  140.49   0.0020000
  103.79   89.93  179.60   0.0020000
  122.05   57.00  139.65   0.0020000
  -36.05  117.65 -121.50   0.0020000
  -64.14  166.75  -44.01   0.0020000
 -172.68    3.77 -179.85   0.0020000
 -102.23   93.83   -6.41   0.0020000
  -79.18  125.76   44.03   0.0020000
  140.13  115.48  -28.57   0.0020000
  165.60  124.82  134.78   0.0020000
 -154.30  115.91 -151.00   0.0020000
 -114.83  116.82  -59.69   0.0020000
  110.25   83.79  -85.15   0.0020000
    2.15   53.63   45.89   0.0020000
  114.47   89.61 -179.07   0.0020000
 -130.06  118.09  122.17   0.0020000
 -100.58   54.91 -134.75   0.0020000
  128.57  123.93  132.39   0.0020000
  114.27   54.90   43.53   0.0020000
  166.49   62.01 -148.01   0.0020000
   35.60  115.49   61.60   0.0020000
 -159.76  116.39 -150.27   0.0020000
  145.66   75.16  -74.69   0.0020000
 -150.40   62.51  -58.75   0.0020000
  142.90   54.59  -45.13   0.0020000
  -77.23  126.02  -44.82   0.0020000
  -78.04   89.94   89.43   0.0020000
  -57.47   71.00  159.69   0.0020000
   72.31   91.90   -0.17   0.0020000
  161.00  176.43 -158.97   0.0020000
   38.61  178.79   80.53   0.0020000
   80.66  140.22 -134.93   0.0020000
 -119.73   56.24   41.41   0.0020000
   62.05  161.76  136.23   0.0020000
   25.02  125.29   44.78   0.0020000
   20.37  123.48 -131.43   0.0020000
   98.08   86.99  -92.79   0.0020000
  -30.58   93.20   -2.58   0.0020000
   43.10   64.85  -61.90   0.0020000
   98.91  152.44  -44.69   0.0020000
 -100.78   93.89   -0.15   0.0020000
   99.18   13.10   46.15   0.0020000
  -65.57  125.36  -45.43   0.0020000
  -72.57   58.54 -127.70   0.0020000
  169.43   19.31   43.66   0.0020000
  -54.59  143.48 -134.99   0.0020000
   25.32   89.43  179.69   0.0020000
  176.69  179.38    0.00   0.0020000
  104.78   81.77  -79.50   0.0020000
   22.34  124.91 -134.96   0.0020000
   -4.29   31.84 -134.92   0.0020000
   15.62   67.53 -155.48   0.0020000
 -154.88   75.78  165.41   0.0020000
   72.57  140.91  -44.91   0.0020000
 -159.15   88.19    2.92   0.0020000
 -167.58   55.23 -135.81   0.0020000
  -33.54  126.46  -45.14   0.0020000
  -45.11   89.30  179.33   0.0020000
  132.05   64.52 -151.62   0.0020000
  -29.45   96.64 -175.60   0.0020000
  -18.94   71.99   19.03   0.0020000
 -139.46   45.76 -135.11   0.0020000
 -147.97   89.92  -90.14   0.0020000
  -70.98   88.19  -91.38   0.0020000
  -10.78   85.18    5.26   0.0020000
  153.23  178.65   73.89   0.0020000
  140.61   55.86   47.49   0.0020000
  167.32  139.86  134.96   0.0020000
 -155.05   90.67   91.26   0.0020000
  165.74   97.22  -97.48   0.0020000
 -111.54  100.04  169.54   0.0020000
   60.02   80.94  -99.28   0.0020000
 -133.43   89.83 -179.18   0.0020000
   21.73   88.77   -0.01   0.0020000
   58.26   65.25 -117.26   0.0020000
  -11.14  134.90   45.06   0.0020000
  -65.77  176.98  -91.04   0.0020000
  -34.93   89.15  -90.22   0.0020000
  -67.69  120.36   54.21   0.0020000
 -121.83  115.77 -151.20   0.0020000
  111.62  126.47 -135.09   0.0020000
 -114.49  125.05   45.41   0.0020000
  -76.43   92.37  179.52   0.0020000
  -96.56   91.89   90.18   0.0020000
  119.79   88.04  -90.18   0.0020000
  -93.68   81.13 -171.83   0.0020000
  -37.18   81.87  173.35   0.0020000
   -2.38   54.61  134.67   0.0020000
  139.61   45.88   44.99   0.0020000
  -50.19  147.51 -135.31   0.0020000
   31.94  123.18   40.99   0.0020000
   19.87  126.07  -44.98   0.0020000
  119.56  124.64 -134.69   0.0020000
 -122.12   78.71 -168.66   0.0020000
  -86.35   89.71  -88.48   0.0020000
  -48.81  134.16   45.01   0.0020000
  122.77   49.20  134.90   0.0020000
 -147.36  146.34  134.88   0.0020000
  -20.56   54.27  -45.03   0.0020000
    7.94  165.24   43.53   0.0020000
  -86.50  176.61   15.86   0.0020000
 -152.02   93.25  -82.47   0.0020000
  -58.58  115.59 -118.55   0.0020000
  -43.23  124.79  134.32   0.0020000
 -173.98  133.22 -135.02   0.0020000
 -111.31  123.51  -48.63   0.0020000
  -80.41  122.95  130.46   0.0020000
  -90.81  125.25  134.87   0.0020000
    7.75  125.29  -45.74   0.0020000
 -126.32  122.32  -39.02   0.0020000
 -169.38  113.67   25.95   0.0020000
  101.66  146.78  135.12   0.0020000
   48.55  125.17   45.19   0.0020000
 -110.08  125.37  -45.27   0.0020000
  153.43   55.03  -44.77   0.0020000
 -101.72  127.06 -135.12   0.0020000
   74.87   86.04   92.13   0.0020000
 -105.95  174.91 -143.53   0.0020000
 -100.07  124.99  -45.01   0.0020000
   59.88  112.29  114.28   0.0020000
  146.80   63.43   60.07   0.0020000
  -30.80  119.62 -145.42   0.0020000
  -16.12    7.48 -134.76   0.0020000
  -82.46  125.58   45.39   0.0020000
   15.84   53.49  135.11   0.0020000
   62.23   63.60 -150.18   0.0020000
  -76.17   63.57   29.80   0.0020000
  167.64  177.48  -64.43   0.0020000
  -18.68   55.21  135.97   0.0020000
  139.95  118.10 -147.63   0.0020000
  -93.46   60.34  145.18   0.0020000
 -143.45  143.92  134.87   0.0020000
 -154.87  123.37  139.29   0.0020000
   27.49   81.23   -7.95   0.0020000
   22.54   49.15  135.01   0.0020000
    0.84   30.93   45.13   0.0020000
 -156.08   93.71   -0.19   0.0020000
  -87.15  179.56    0.00   0.0020000
  -38.61   91.69  -94.61   0.0020000
  -50.71   89.48  179.81   0.0020000
 -120.79   86.48  176.53   0.0020000
  167.81  110.50 -158.05   0.0020000
  -97.14   90.36   89.84   0.0020000
   39.76  122.05  128.74   0.0020000
  -52.32  124.82  134.55   0.0020000
 -179.33   54.78  133.99   0.0020000
 -171.27  125.28  135.82   0.0020000
 -148.43   48.86 -135.34   0.0020000
   60.43   93.71 -176.05   0.0020000
  -16.05   85.70   84.91   0.0020000
 -110.39   62.63   58.73   0.0020000
  -49.14   74.58 -163.81   0.0020000
 -171.34   90.41    2.26   0.0020000
   29.53  143.70   45.06   0.0020000
  107.73   89.15  -91.22   0.0020000
  -40.33   85.73  174.86   0.0020000
  107.78  125.49 -135.10   0.0020000
  -17.60    3.04 -172.95   0.0020000
  -36.32   89.82  -90.70   0.0020000
    3.72  126.42  134.68   0.0020000
   20.23  119.30   34.17   0.0020000
  107.34   89.20   -0.61   0.0020000
  173.72   67.41   24.46   0.0020000
  -57.27  114.06   63.54   0.0020000
   43.76   90.40  -89.70   0.0020000
   96.33  175.11   51.66   0.0020000
  -76.14   37.26  -44.96   0.0020000
   22.00  110.13   68.64   0.0020000
 -111.45   87.28   91.44   0.0020000
   10.82  139.94  135.06   0.0020000
   76.69  102.52 -166.99   0.0020000
  -24.92  116.23 -119.41   0.0020000
  168.89  124.05  -42.81   0.0020000
   87.99   25.39   44.93   0.0020000
   77.46  123.15 -139.14   0.0020000
   99.47   54.40   45.39   0.0020000
   31.85  172.72   35.37   0.0020000
  104.41  113.74   26.24   0.0020000
 -171.28  126.28 -135.41   0.0020000
   73.97   88.83    0.58   0.0020000
 -139.34  149.92   44.79   0.0020000
   47.83   55.37 -136.41   0.0020000
 -141.53  125.06   44.66   0.0020000
  116.24  126.00 -134.44   0.0020000
 -115.05  121.55   51.59   0.0020000
  -31.06  125.32  134.88   0.0020000
   93.98   90.94  -90.89   0.0020000
  105.96   10.16 -137.12   0.0020000
 -104.03   90.21  179.74   0.0020000
   10.76  103.19  -13.49   0.0020000
  -91.90   55.21   46.23   0.0020000
 -139.80  118.81   33.36   0.0020000
 -103.14   38.97 -135.09   0.0020000
  153.20   89.81   90.49   0.0020000
  -54.47   91.47   88.50   0.0020000
  159.23   96.88  175.35   0.0020000
 -155.69  121.85  -51.61   0.0020000
  129.29   60.80 -146.11   0.0020000
  154.64  173.83  -17.54   0.0020000
   22.95   92.21  -94.89   0.0020000
  119.07   55.77  135.65   0.0020000
  -29.78  178.08   21.63   0.0020000
  -50.07   92.30 -177.92   0.0020000
  113.63  141.16  -44.93   0.0020000
  130.68   55.40  137.04   0.0020000
 -124.82   55.08  -45.98   0.0020000
  -99.33    8.30  -49.90   0.0020000
    9.78  107.10  -72.79   0.0020000
   66.98   88.05  -89.01   0.0020000
 -114.99  148.49 -135.13   0.0020000
  -15.54   58.29  -51.75   0.0020000
   52.57   39.29  -44.90   0.0020000
  -37.55   65.59   62.95   0.0020000
 -101.86   66.52  -64.26   0.0020000
   22.54  125.76  134.84   0.0020000
 -177.63  138.84  134.95   0.0020000
  163.54   41.95  134.94   0.0020000
  -99.21  123.93  -42.06   0.0020000
   35.67   90.14  179.83   0.0020000
    7.15  124.43  -44.46   0.0020000
   88.72   54.56 -134.99   0.0020000
  172.41  129.52  134.92   0.0020000
  118.20  110.02  111.52   0.0020000
  134.64  168.22  135.65   0.0020000
  129.43   94.11  -84.08   0.0020000
 -122.61   91.75  -87.39   0.0020000
  144.87   54.36  135.35   0.0020000
   38.01   87.19   87.09   0.0020000
 -169.96  127.92 -134.99   0.0020000
  -68.51  129.11  -45.24   0.0020000
 -170.68   55.09 -133.88   0.0020000
   77.80   54.30   44.73   0.0020000
   68.21   58.01  -51.36   0.0020000
   43.74   14.87  -45.71   0.0020000
 -162.82   26.47  134.44   0.0020000
 -165.36   93.16    4.16   0.0020000
 -128.87   41.51  -45.08   0.0020000
   56.27   64.07 -150.84   0.0020000
 -143.11  123.21  -48.67   0.0020000
 -172.54   99.32  -96.82   0.0020000
 -118.26  118.19 -147.71   0.0020000
 -114.80   61.26  146.67   0.0020000
  -86.19   56.41   47.89   0.0020000
 -162.29  120.63   53.50   0.0020000
  123.93  142.97  -44.95   0.0020000
  -41.77   64.61 -118.42   0.0020000
    6.50   89.98  -90.53   0.0020000
  110.96  172.95 -110.35   0.0020000
  -16.57   56.93 -139.33   0.0020000
  -68.58  114.93   27.61   0.0020000
  -52.20   68.93 -157.25   0.0020000
  154.78   53.37 -135.16   0.0020000
  123.87  179.60    0.00   0.0020000
   64.48  126.07  135.27   0.0020000
  109.46   89.96 -179.20   0.0020000
    8.94  125.04 -135.83   0.0020000
  112.83  130.78 -134.87   0.0020000
   -6.03   56.35   48.18   0.0020000
 -107.69  111.97  156.16   0.0020000
 -157.22  111.66  -23.35   0.0020000
 -160.00  117.98  -57.94   0.0020000
  -82.54  146.14  134.95   0.0020000
    7.37   63.63   29.82   0.0020000
  174.72  110.15  111.42   0.0020000
   60.06   56.16 -137.91   0.0020000
 -173.92  135.57 -135.12   0.0020000
  -50.57   37.29 -134.93   0.0020000
  156.18  116.70  -30.30   0.0020000
   30.08    1.00 -135.89   0.0020000
   60.53   54.75  134.85   0.0020000
 -110.18   46.64  -44.71   0.0020000
  -74.06   57.34  140.14   0.0020000
 -146.17   88.96    1.87   0.0020000
   94.64   98.15   98.08   0.0020000
   53.50  112.22  -24.09   0.0020000
   -6.06   60.42   34.78   0.0020000
    1.16  120.51  126.10   0.0020000
   57.67  178.89 -135.09   0.0020000
  -67.75  130.27  134.88   0.0020000
 -177.38    3.33 -160.40   0.0020000
   86.22  111.72  -66.38   0.0020000
  -68.75   94.57  175.90   0.0020000
   99.44   43.01  134.90   0.0020000
 -168.29    5.93  -42.37   0.0020000
   70.00  124.89   45.38   0.0020000
  115.38   43.82   45.00   0.0020000
  168.91  114.31 -153.13   0.0020000
 -165.28   36.51 -135.06   0.0020000
  120.16  123.99 -132.45   0.0020000
  -94.72   54.70  -45.20   0.0020000
 -106.10   64.24  118.84   0.0020000
  155.22   86.47   86.08   0.0020000
  -71.60   59.91 -144.54   0.0020000
   33.87  114.92  117.75   0.0020000
 -167.48   64.03   60.84   0.0020000
   -2.71  108.39  -19.31   0.0020000
  -12.05  127.05   45.00   0.0020000
   42.58   55.74  132.64   0.0020000
    9.14   94.26   90.24   0.0020000
 -150.30    1.40 -139.37   0.0020000
  -44.37   61.07  146.24   0.0020000
  -35.31   61.24   33.21   0.0020000
    5.11  135.65  135.11   0.0020000
 -125.99  126.12  -44.94   0.0020000
  155.49    5.25  130.29   0.0020000
  -35.84  115.52 -118.39   0.0020000
   50.46  122.81 -130.17   0.0020000
 -129.56  115.71  -61.27   0.0020000
   26.01  172.72  130.14   0.0020000
  -63.24  128.01   44.70   0.0020000
  -75.82   61.49   32.94   0.0020000
 -125.01  138.45  -45.09   0.0020000
 -163.69   52.91 -135.05   0.0020000
    5.32   55.19  135.65   0.0020000
   36.76   89.18    0.41   0.0020000
 -161.39  118.71 -123.34   0.0020000
   65.94   44.68  -44.75   0.0020000
  137.67    4.70 -139.95   0.0020000
  112.25   89.42 -179.35   0.0020000
 -103.00   53.23  134.88   0.0020000
  -99.47   89.19  178.75   0.0020000
  113.52  118.54  123.07   0.0020000
  149.66  172.81 -132.96   0.0020000
 -126.50   93.43    2.27   0.0020000
 -135.43   86.25   86.87   0.0020000
   53.86   65.21   62.59   0.0020000
  155.80  177.18  -41.18   0.0020000
 -168.67  122.04  -39.97   0.0020000
  -55.56   97.27    3.47   0.0020000
  105.23   88.50   -1.52   0.0020000
   27.11  124.77   46.00   0.0020000
   -7.90  125.09   45.21   0.0020000
 -124.14   92.16  -86.24   0.0020000
