TEXTURE AT STRAIN =    1.0000
   0.605   2.692   0.605  <-- length of average ellipsoid axes for phase
  158.95   90.00  180.00  <-- Euler angles of average ellipsoid axes for phase
B       500
  107.76  124.17   42.87   0.0020000
 -116.94   40.15   44.92   0.0020000
  167.62   36.47   44.89   0.0020000
  147.45   64.54   28.29   0.0020000
  144.58   85.55    3.98   0.0020000
 -106.60    0.00    0.00   0.0020000
   12.63   63.73  -29.49   0.0020000
 -164.67  176.32  -26.30   0.0020000
  -48.05   55.03  134.76   0.0020000
  -66.41  128.64 -135.06   0.0020000
  -14.95  169.34  -45.41   0.0020000
  -43.31  180.00    0.00   0.0020000
   40.80   55.66   43.28   0.0020000
   25.98  115.15  152.07   0.0020000
   52.99  115.87  -29.02   0.0020000
  -89.42   88.06  178.33   0.0020000
  105.33    1.36 -161.31   0.0020000
   85.24   67.09   24.94   0.0020000
   77.79   59.02 -143.19   0.0020000
  -53.76   22.82  135.23   0.0020000
 -140.83  119.58  -34.62   0.0020000
   -8.41  145.36 -134.86   0.0020000
  -75.90    2.65   45.76   0.0020000
  179.40   37.26 -135.11   0.0020000
  129.86   77.21   76.68   0.0020000
  111.76  117.16  -59.00   0.0020000
  -63.47   90.26  -89.43   0.0020000
   -7.38   66.74  154.65   0.0020000
  -86.14   89.98  -90.91   0.0020000
  -38.03  125.19  -44.25   0.0020000
  119.28   77.89   77.57   0.0020000
   20.06   53.22  -44.87   0.0020000
  179.46  122.36  129.26   0.0020000
  -83.92   68.68 -113.13   0.0020000
  -43.15  127.37 -134.95   0.0020000
   31.34   59.47 -126.01   0.0020000
   22.95  135.18 -134.89   0.0020000
 -116.27   70.02 -158.70   0.0020000
 -122.94  113.51  115.68   0.0020000
   27.77   86.98   87.72   0.0020000
 -132.75  125.97   45.37   0.0020000
  114.55   88.92   90.79   0.0020000
  162.29   68.69 -157.23   0.0020000
  -60.72   54.25  134.99   0.0020000
  168.09   63.67 -119.66   0.0020000
 -153.40   91.98 -169.04   0.0020000
 -104.00   56.74   40.33   0.0020000
  130.34   56.24  132.18   0.0020000
  -50.05   55.80 -137.85   0.0020000
  -92.75   40.59 -135.10   0.0020000
  -96.58   28.51  -45.12   0.0020000
  -58.62  100.44  169.28   0.0020000
   37.11  124.96 -134.89   0.0020000
  166.68  161.85  -45.18   0.0020000
   70.72   54.72 -135.01   0.0020000
  -95.22  115.00  -27.75   0.0020000
   79.98  116.65  -59.71   0.0020000
  -27.03   50.01   44.91   0.0020000
  -86.68    0.00    0.00   0.0020000
   47.05   89.64   91.91   0.0020000
  157.07    0.81   -9.63   0.0020000
  -16.79  116.39  150.42   0.0020000
 -103.38   55.40 -134.48   0.0020000
  166.86  178.73  -64.71   0.0020000
  -52.38   55.59 -134.99   0.0020000
  165.17   55.04 -135.65   0.0020000
   20.09  141.69 -134.89   0.0020000
   41.01  125.21 -135.10   0.0020000
  -93.78   32.90   44.97   0.0020000
 -133.84   57.12 -139.76   0.0020000
   26.08   66.75   25.54   0.0020000
   -4.10   95.73  174.46   0.0020000
  114.56    8.98  135.12   0.0020000
 -119.25   70.69  -69.32   0.0020000
   65.61  173.23  132.47   0.0020000
  -58.86  178.95   24.46   0.0020000
    9.03  142.71 -134.90   0.0020000
  163.89   50.45   44.93   0.0020000
  135.72   78.29   78.31   0.0020000
    4.80  139.25   45.11   0.0020000
  178.58   65.36  152.69   0.0020000
   81.81    2.60  159.70   0.0020000
  -30.58  149.41  135.12   0.0020000
  -47.80  111.88 -156.41   0.0020000
   88.06    0.00    0.00   0.0020000
  154.47   76.47 -166.33   0.0020000
  178.12   61.02  146.21   0.0020000
   55.18   89.95   91.90   0.0020000
   12.82  124.22   47.29   0.0020000
   14.75   57.69  -50.59   0.0020000
  135.38    9.26   37.67   0.0020000
   73.94   24.30   45.03   0.0020000
   95.07   86.45  176.53   0.0020000
   30.10  126.27 -134.83   0.0020000
  -51.99   90.81   -0.27   0.0020000
 -173.79  141.20 -135.14   0.0020000
  124.42  129.08  134.93   0.0020000
   74.09   65.10  -62.35   0.0020000
  100.91  123.48  -48.42   0.0020000
 -176.05   84.27   83.75   0.0020000
   77.29   55.80  -42.76   0.0020000
  179.97   89.39   89.37   0.0020000
  130.75   56.48   41.27   0.0020000
  173.09  130.23  134.87   0.0020000
   40.27   90.34   89.89   0.0020000
  125.87  115.35  -61.52   0.0020000
   25.46    6.59   38.12   0.0020000
  -35.69   54.61  135.09   0.0020000
    1.64  124.29 -132.83   0.0020000
  -20.82   67.58 -114.33   0.0020000
   16.87   39.39 -134.85   0.0020000
   60.75  117.17   59.10   0.0020000
  -80.32  125.11  134.67   0.0020000
 -139.91   59.10 -143.29   0.0020000
  116.04  104.48 -105.04   0.0020000
  126.57  125.22  -44.67   0.0020000
   73.98   58.07   38.49   0.0020000
  -72.98   49.55  -45.01   0.0020000
 -143.84  114.08   26.42   0.0020000
    0.08  153.97  -44.36   0.0020000
   28.93    6.90  -44.94   0.0020000
   12.79   90.47   90.05   0.0020000
   67.08   77.73  169.12   0.0020000
  -90.46   55.69  136.89   0.0020000
 -149.07  144.01   44.83   0.0020000
  107.84  138.14   44.93   0.0020000
   88.85   89.85  -89.73   0.0020000
 -167.55  126.52  -45.12   0.0020000
 -160.43   54.72 -134.99   0.0020000
  -44.74  176.01 -119.80   0.0020000
    7.92   88.31    1.04   0.0020000
 -124.22  115.97  119.04   0.0020000
   43.10   91.93  -92.14   0.0020000
  -94.06   55.38  -47.03   0.0020000
 -152.84  122.61 -140.49   0.0020000
  -93.47  122.81  -40.06   0.0020000
  -81.24   83.08   84.62   0.0020000
  164.43   65.48  152.87   0.0020000
  -74.37   86.53    4.01   0.0020000
   30.87  120.95  143.25   0.0020000
  -45.56  142.25  135.08   0.0020000
  142.83  128.93  134.68   0.0020000
 -176.92   86.12   90.88   0.0020000
   91.59   32.44   45.02   0.0020000
 -155.47   99.31   80.71   0.0020000
  147.86  123.68   42.00   0.0020000
  137.33   59.37  126.14   0.0020000
   94.78   90.40   92.35   0.0020000
   29.36   90.07  -89.96   0.0020000
   87.34   56.23  132.05   0.0020000
 -168.96  124.98   45.79   0.0020000
  -50.82  124.97  -44.87   0.0020000
   62.04   68.95   22.67   0.0020000
 -119.33   63.59   60.06   0.0020000
  -99.93   83.12  -97.50   0.0020000
  100.33  144.79  135.06   0.0020000
  -93.59  128.36  -45.28   0.0020000
   46.90  145.05   45.10   0.0020000
  158.65   90.70   88.74   0.0020000
  173.94   84.19 -172.11   0.0020000
   22.86  118.14   57.77   0.0020000
  117.34   71.26 -160.95   0.0020000
 -115.94  120.50   35.95   0.0020000
 -137.65  125.78 -135.12   0.0020000
   85.16   61.35   57.03   0.0020000
   50.16  125.00   45.01   0.0020000
  -32.16   38.45  135.07   0.0020000
  102.77    1.68  139.66   0.0020000
  103.80   89.94  179.64   0.0020000
  120.20   58.90  143.02   0.0020000
  -35.31  116.85 -120.25   0.0020000
  -64.62  163.81  -44.55   0.0020000
 -173.41    3.51 -179.03   0.0020000
 -102.13   94.24   -6.30   0.0020000
  -79.07  125.83   44.06   0.0020000
  140.05  115.35  -28.42   0.0020000
  165.65  124.75  134.53   0.0020000
 -154.50  115.74 -151.30   0.0020000
 -115.44  116.30  -60.50   0.0020000
  109.98   83.49  -84.43   0.0020000
    2.71   53.27   45.80   0.0020000
  114.47   89.64 -179.14   0.0020000
 -130.70  117.20  120.78   0.0020000
 -100.59   55.10 -134.39   0.0020000
  126.84  122.27  129.26   0.0020000
  115.12   55.23   43.02   0.0020000
  167.07   62.93 -149.42   0.0020000
   35.75  115.29   61.85   0.0020000
 -160.16  116.05 -150.84   0.0020000
  144.86   72.03  -71.23   0.0020000
 -150.01   63.23  -59.78   0.0020000
  142.91   54.53  -45.19   0.0020000
  -77.78  126.58  -44.87   0.0020000
  -78.06   89.92   89.48   0.0020000
  -56.87   69.30  157.70   0.0020000
   72.28   91.76   -0.17   0.0020000
  165.33  176.41 -154.44   0.0020000
   37.26  178.88   79.14   0.0020000
   80.58  141.02 -134.93   0.0020000
 -118.13   57.43   39.47   0.0020000
   61.44  158.32  135.46   0.0020000
   24.82  125.18   44.64   0.0020000
   21.64  121.92 -128.48   0.0020000
   98.14   86.75  -93.09   0.0020000
  -30.69   93.41   -2.94   0.0020000
   43.21   64.89  -61.99   0.0020000
   98.80  150.09  -44.86   0.0020000
 -100.77   93.61   -0.12   0.0020000
   99.85   15.88   45.32   0.0020000
  -65.79  125.31  -45.54   0.0020000
  -74.23   60.05 -125.26   0.0020000
  168.84   22.51   44.42   0.0020000
  -54.58  143.57 -134.93   0.0020000
   25.34   89.48  179.71   0.0020000
  176.70  180.00    0.00   0.0020000
  104.88   80.72  -79.13   0.0020000
   22.30  124.84 -134.98   0.0020000
   -4.20   33.00 -134.84   0.0020000
   15.33   66.96 -154.74   0.0020000
 -153.79   72.88  162.00   0.0020000
   72.61  141.62  -44.92   0.0020000
 -159.05   87.89    2.99   0.0020000
 -167.54   55.58 -136.66   0.0020000
  -33.27  127.86  -45.02   0.0020000
  -45.11   89.32  179.35   0.0020000
  132.39   64.66 -151.90   0.0020000
  -29.32   96.60 -175.13   0.0020000
  -19.85   69.68   21.83   0.0020000
 -139.55   43.09 -135.11   0.0020000
 -147.97   89.92  -90.12   0.0020000
  -70.94   88.15  -91.48   0.0020000
  -10.76   84.34    5.95   0.0020000
  153.03  178.75   73.68   0.0020000
  138.94   57.36   50.28   0.0020000
  167.49  140.96  134.89   0.0020000
 -155.07   90.68   91.20   0.0020000
  165.60   98.68  -98.90   0.0020000
 -111.89  102.22  167.39   0.0020000
   60.35   78.77 -101.45   0.0020000
 -133.40   89.83 -179.24   0.0020000
   21.77   88.87   -0.01   0.0020000
   57.85   65.43 -117.01   0.0020000
  -11.06  137.55   45.11   0.0020000
  -65.91  177.18  -91.16   0.0020000
  -34.90   89.21  -90.21   0.0020000
  -66.31  118.74   56.88   0.0020000
 -122.21  115.55 -151.56   0.0020000
  111.80  127.95 -135.06   0.0020000
 -114.30  124.83   45.95   0.0020000
  -76.52   92.21  179.46   0.0020000
  -96.53   91.74   90.21   0.0020000
  119.78   88.20  -90.18   0.0020000
  -94.10   80.16 -170.42   0.0020000
  -36.94   81.45  172.43   0.0020000
   -2.39   54.53  134.69   0.0020000
  139.76   43.05   44.93   0.0020000
  -49.94  147.65 -135.12   0.0020000
   30.64  121.53   38.00   0.0020000
   20.05  127.10  -44.92   0.0020000
  119.52  124.55 -134.48   0.0020000
 -122.90   76.08 -165.67   0.0020000
  -86.28   89.69  -88.59   0.0020000
  -48.75  136.84   45.05   0.0020000
  122.21   46.73  134.92   0.0020000
 -147.23  145.78  134.83   0.0020000
  -20.60   53.60  -44.97   0.0020000
    8.75  162.48   44.56   0.0020000
  -83.54  176.71   18.94   0.0020000
 -152.19   93.68  -82.69   0.0020000
  -58.27  115.41 -118.21   0.0020000
  -43.23  124.55  133.69   0.0020000
 -173.99  136.17 -135.10   0.0020000
 -113.28  121.65  -52.11   0.0020000
  -81.51  121.56  127.80   0.0020000
  -90.78  125.25  134.84   0.0020000
    7.29  125.11  -45.94   0.0020000
 -124.67  121.06  -36.90   0.0020000
 -169.23  113.93   26.24   0.0020000
  101.67  146.05  135.07   0.0020000
   48.47  125.10   45.29   0.0020000
 -110.08  125.38  -45.36   0.0020000
  153.51   55.11  -44.57   0.0020000
 -101.62  129.41 -135.08   0.0020000
   74.70   86.09   92.44   0.0020000
 -103.10  174.37 -140.56   0.0020000
 -100.09  124.97  -44.95   0.0020000
   60.37  112.80  115.03   0.0020000
  146.52   63.82   60.60   0.0020000
  -31.88  118.25 -147.54   0.0020000
  -16.15    8.62 -134.75   0.0020000
  -82.57  125.66   45.43   0.0020000
   16.09   51.74  135.11   0.0020000
   62.58   64.01 -150.81   0.0020000
  -75.80   63.99   29.29   0.0020000
  171.06  177.46  -60.88   0.0020000
  -19.58   55.80  137.16   0.0020000
  139.18  117.16 -149.07   0.0020000
  -94.65   61.85  147.49   0.0020000
 -143.44  143.91  134.83   0.0020000
 -153.31  122.35  140.95   0.0020000
   27.92   80.08   -9.55   0.0020000
   22.44   45.88  135.08   0.0020000
    0.75   32.39   45.19   0.0020000
 -155.99   93.45   -0.15   0.0020000
  -87.15  180.00    0.00   0.0020000
  -38.48   91.91  -94.42   0.0020000
  -50.70   89.52  179.81   0.0020000
 -120.75   86.08  176.10   0.0020000
  168.26  111.77 -156.53   0.0020000
  -97.15   90.32   89.86   0.0020000
   38.27  120.22  125.73   0.0020000
  -52.14  124.72  134.25   0.0020000
 -178.57   55.04  133.60   0.0020000
 -170.91  125.18  135.95   0.0020000
 -149.11   46.96 -135.25   0.0020000
   60.44   94.23 -175.58   0.0020000
  -16.12   84.94   84.42   0.0020000
 -110.75   63.44   59.84   0.0020000
  -49.95   71.74 -160.60   0.0020000
 -171.41   90.45    2.12   0.0020000
   29.39  143.69   45.10   0.0020000
  107.72   89.15  -91.17   0.0020000
  -40.40   84.92  174.35   0.0020000
  107.84  125.68 -135.11   0.0020000
  -18.34    2.82 -172.21   0.0020000
  -36.34   89.83  -90.65   0.0020000
    4.34  127.14  134.84   0.0020000
   19.32  117.94   32.13   0.0020000
  107.35   89.25   -0.59   0.0020000
  173.65   66.90   25.09   0.0020000
  -57.14  114.27   63.35   0.0020000
   43.75   90.37  -89.73   0.0020000
   94.25  174.68   49.51   0.0020000
  -75.78   36.93  -44.97   0.0020000
   21.33  111.45   66.96   0.0020000
 -111.56   87.30   91.65   0.0020000
   10.61  140.99  135.11   0.0020000
   77.57  105.63 -163.58   0.0020000
  -24.49  115.88 -118.86   0.0020000
  170.10  122.74  -40.23   0.0020000
   88.03   28.61   44.99   0.0020000
   75.61  121.15 -142.66   0.0020000
   99.66   54.24   45.36   0.0020000
   34.80  172.21   38.46   0.0020000
  104.51  113.96   26.53   0.0020000
 -170.64  126.95 -135.34   0.0020000
   73.94   88.92    0.56   0.0020000
 -139.37  148.25   44.79   0.0020000
   48.90   56.30 -138.23   0.0020000
 -141.68  124.92   44.25   0.0020000
  115.77  126.24 -134.55   0.0020000
 -114.78  120.67   53.39   0.0020000
  -31.11  125.34  134.89   0.0020000
   93.99   90.91  -90.86   0.0020000
  104.96   12.01 -136.02   0.0020000
 -104.04   90.18  179.77   0.0020000
    9.93  106.44  -17.06   0.0020000
  -92.86   55.95   47.51   0.0020000
 -140.41  117.83   31.76   0.0020000
 -103.21   38.29 -135.08   0.0020000
  153.20   89.82   90.45   0.0020000
  -54.49   91.49   88.48   0.0020000
  158.98   97.01  174.60   0.0020000
 -157.34  119.98  -54.87   0.0020000
  130.23   62.06 -148.13   0.0020000
  152.22  174.07  -20.03   0.0020000
   23.09   92.57  -94.81   0.0020000
  119.27   55.79  135.88   0.0020000
  -27.33  178.12   24.13   0.0020000
  -50.05   92.39 -177.79   0.0020000
  113.67  141.66  -44.98   0.0020000
  129.35   56.14  138.27   0.0020000
 -124.20   55.68  -47.05   0.0020000
 -101.33    9.36  -47.77   0.0020000
    9.94  107.34  -72.22   0.0020000
   66.91   88.13  -88.96   0.0020000
 -114.88  147.24 -135.12   0.0020000
  -14.11   60.03  -54.65   0.0020000
   52.67   38.55  -44.88   0.0020000
  -37.44   65.49   62.85   0.0020000
 -102.17   66.26  -63.83   0.0020000
   22.95  126.10  134.92   0.0020000
 -177.53  140.19  134.87   0.0020000
  163.60   40.36  134.89   0.0020000
  -97.48  122.59  -39.56   0.0020000
   35.67   90.13  179.84   0.0020000
    6.89  124.35  -44.10   0.0020000
   88.62   54.46 -135.00   0.0020000
  172.56  132.87  134.90   0.0020000
  118.71  111.38  113.15   0.0020000
  134.25  165.94  135.20   0.0020000
  129.31   94.81  -83.87   0.0020000
 -122.66   91.99  -87.33   0.0020000
  145.05   54.17  135.27   0.0020000
   38.03   86.90   86.83   0.0020000
 -169.96  131.08 -135.07   0.0020000
  -67.92  131.46  -45.10   0.0020000
 -171.59   55.64 -132.99   0.0020000
   77.43   54.08   44.76   0.0020000
   69.92   59.84  -54.53   0.0020000
   43.28   17.86  -45.05   0.0020000
 -163.04   27.92  134.64   0.0020000
 -165.47   93.68    4.40   0.0020000
 -129.06   40.03  -45.10   0.0020000
   56.36   64.31 -151.22   0.0020000
 -143.72  122.24  -50.77   0.0020000
 -172.76   99.44  -97.66   0.0020000
 -119.06  117.35 -149.00   0.0020000
 -115.49   62.49  148.46   0.0020000
  -86.68   57.46   50.03   0.0020000
 -161.48  119.26   55.80   0.0020000
  123.99  143.16  -45.01   0.0020000
  -41.91   64.77 -118.15   0.0020000
    6.50   90.00  -90.49   0.0020000
  107.63  173.07 -113.78   0.0020000
  -14.88   58.68 -142.39   0.0020000
  -68.71  114.91   27.57   0.0020000
  -52.57   67.95 -155.98   0.0020000
  154.44   51.94 -135.14   0.0020000
  123.87  180.00    0.00   0.0020000
   64.02  126.77  135.20   0.0020000
  109.44   89.98 -179.27   0.0020000
    8.20  124.63 -136.48   0.0020000
  112.35  133.28 -134.96   0.0020000
   -7.87   58.09   51.49   0.0020000
 -108.08  112.68  155.29   0.0020000
 -157.41  112.16  -24.05   0.0020000
 -160.56  117.07  -59.37   0.0020000
  -82.51  145.60  135.00   0.0020000
    7.51   64.05   29.22   0.0020000
  175.28  111.35  112.89   0.0020000
   61.83   57.82 -141.05   0.0020000
 -173.52  137.61 -135.14   0.0020000
  -50.23   36.83 -134.91   0.0020000
  156.53  116.16  -29.54   0.0020000
   30.13    0.97 -135.95   0.0020000
   60.58   54.79  134.72   0.0020000
 -109.42   45.12  -44.86   0.0020000
  -75.86   59.08  143.11   0.0020000
 -146.11   88.87    1.84   0.0020000
   95.04   99.80   99.94   0.0020000
   53.18  112.83  -24.92   0.0020000
   -5.57   61.55   32.98   0.0020000
    0.01  118.87  123.51   0.0020000
   57.39  178.93 -135.38   0.0020000
  -67.45  133.22  134.97   0.0020000
  178.21    3.34 -155.79   0.0020000
   86.63  112.47  -65.40   0.0020000
  -68.89   95.03  175.29   0.0020000
   98.74   41.35  134.94   0.0020000
 -167.22    6.75  -43.48   0.0020000
   69.85  124.74   45.70   0.0020000
  115.23   41.84   44.97   0.0020000
  168.78  114.43 -153.04   0.0020000
 -165.38   36.45 -135.11   0.0020000
  121.81  122.32 -129.39   0.0020000
  -94.71   54.76  -45.26   0.0020000
 -106.10   64.54  118.50   0.0020000
  155.18   86.04   85.77   0.0020000
  -70.42   61.55 -147.07   0.0020000
   33.91  114.89  117.78   0.0020000
 -167.69   64.35   61.24   0.0020000
   -3.40  110.54  -21.86   0.0020000
  -11.97  129.49   45.07   0.0020000
   44.01   56.73  130.85   0.0020000
    9.18   93.96   90.27   0.0020000
 -151.10    1.38 -138.54   0.0020000
  -44.67   62.07  147.87   0.0020000
  -34.25   62.17   31.91   0.0020000
    4.84  137.76  135.13   0.0020000
 -126.24  127.16  -45.01   0.0020000
  153.87    5.87  132.00   0.0020000
  -35.76  115.42 -118.19   0.0020000
   51.71  121.16 -127.23   0.0020000
 -129.80  115.49  -61.65   0.0020000
   28.09  171.69  132.34   0.0020000
  -62.62  129.88   44.86   0.0020000
  -75.05   62.67   31.24   0.0020000
 -124.90  139.98  -45.11   0.0020000
 -163.67   50.39 -135.10   0.0020000
    4.92   55.52  136.51   0.0020000
   36.75   89.24    0.38   0.0020000
 -160.57  117.63 -121.66   0.0020000
   66.72   42.73  -44.83   0.0020000
  136.15    5.18 -138.35   0.0020000
  112.24   89.47 -179.39   0.0020000
 -103.21   51.25  134.92   0.0020000
  -99.51   89.16  178.78   0.0020000
  112.68  117.46  121.43   0.0020000
  148.70  171.80 -133.97   0.0020000
 -126.32   93.55    2.68   0.0020000
 -135.32   85.97   86.40   0.0020000
   53.86   65.13   62.52   0.0020000
  155.02  177.08  -41.96   0.0020000
 -168.71  121.54  -38.68   0.0020000
  -55.37   97.12    4.06   0.0020000
  105.24   88.47   -1.56   0.0020000
   27.53  124.19   47.23   0.0020000
   -7.87  125.00   45.46   0.0020000
 -124.28   92.59  -86.18   0.0020000
