TEXTURE AT STRAIN =    1.0000
   0.605   2.692   0.605  <-- length of average ellipsoid axes for phase
  169.19   90.00  180.00  <-- Euler angles of average ellipsoid axes for phase
B       500
  108.25  124.83   44.01   0.0020000
 -119.25   52.33   46.39   0.0020000
  167.46   51.72   45.03   0.0020000
  144.48   62.07   41.23   0.0020000
  149.21   79.59    8.54   0.0020000
   27.75    1.78 -134.35   0.0020000
   17.90   57.81  -42.56   0.0020000
 -163.39  169.93  -19.34   0.0020000
  -47.96   55.14  134.71   0.0020000
  -68.34  126.33 -135.65   0.0020000
  -11.33  145.81  -46.64   0.0020000
   62.14  178.16  105.41   0.0020000
   42.41   55.74   44.51   0.0020000
   20.24  124.08  138.30   0.0020000
   47.01  124.30  -42.15   0.0020000
  -90.60   86.40  177.53   0.0020000
  112.94    3.53 -169.41   0.0020000
   82.45   56.49   35.84   0.0020000
   73.29   55.04 -136.78   0.0020000
  -51.28   42.05  139.64   0.0020000
 -146.32  124.89  -43.06   0.0020000
   -7.11  131.34 -131.69   0.0020000
  -76.07    4.12   46.04   0.0020000
  179.02   52.02 -135.11   0.0020000
  143.37   67.85   59.87   0.0020000
  116.36  122.93  -46.88   0.0020000
  -63.44   90.44  -88.31   0.0020000
   -4.13   55.80  148.62   0.0020000
  -86.14   90.01  -92.65   0.0020000
  -38.84  125.61  -43.85   0.0020000
  132.34   64.35   59.23   0.0020000
   18.10   53.89  -44.40   0.0020000
 -175.99  125.21  133.28   0.0020000
  -77.58   57.83 -128.73   0.0020000
  -41.54  126.20 -134.57   0.0020000
   36.43   55.08 -133.15   0.0020000
   21.65  126.80 -135.29   0.0020000
 -115.96   57.66 -156.86   0.0020000
 -112.39  122.52  131.10   0.0020000
   23.58   83.91   86.20   0.0020000
 -131.30  126.06   46.43   0.0020000
  114.70   87.42   92.04   0.0020000
  157.21   57.63 -141.38   0.0020000
  -59.76   54.20  134.75   0.0020000
  174.44   55.30 -131.72   0.0020000
 -152.74   91.93 -141.17   0.0020000
 -105.67   52.50   37.62   0.0020000
  131.38   56.62  134.47   0.0020000
  -51.96   53.35 -139.19   0.0020000
  -84.52   49.85 -140.72   0.0020000
 -102.04   46.56  -46.53   0.0020000
  -73.95  117.00  146.93   0.0020000
   37.24  124.51 -135.02   0.0020000
  164.89  134.89  -44.49   0.0020000
   70.91   54.88 -135.12   0.0020000
  -99.79  124.31  -41.09   0.0020000
   86.12  124.37  -47.40   0.0020000
  -22.29   53.01   42.73   0.0020000
  -62.04    1.33  -24.65   0.0020000
   46.57   89.80   95.24   0.0020000
  157.34    2.49   -9.82   0.0020000
  -23.69  123.92  137.27   0.0020000
 -104.24   56.10 -134.84   0.0020000
  169.84  176.69  -62.16   0.0020000
  -52.67   56.74 -135.03   0.0020000
  165.27   55.17 -135.48   0.0020000
   20.06  127.67 -135.56   0.0020000
   40.97  125.20 -135.38   0.0020000
 -106.02   41.38   58.83   0.0020000
 -134.68   55.55 -136.06   0.0020000
   15.03   57.78   40.67   0.0020000
   -3.05  103.12  167.37   0.0020000
  115.59   21.89  136.73   0.0020000
 -123.52   74.21  -55.95   0.0020000
   63.20  170.39  123.69   0.0020000
  -59.60  176.95   23.34   0.0020000
    7.71  128.81 -136.79   0.0020000
  163.24   53.57   45.14   0.0020000
  130.85   63.26   63.90   0.0020000
    4.44  127.20   44.98   0.0020000
 -176.72   55.77  139.87   0.0020000
   73.51    6.74  170.10   0.0020000
  -26.30  131.81  133.53   0.0020000
  -43.89  122.55 -141.38   0.0020000
   42.03    1.01   46.03   0.0020000
  154.28   59.83 -146.66   0.0020000
  178.32   62.05  137.03   0.0020000
   55.48   90.33   95.35   0.0020000
   11.55  124.91   46.05   0.0020000
   14.70   56.12  -45.77   0.0020000
  136.49   24.62   27.50   0.0020000
   67.97   43.51   42.68   0.0020000
   94.49   85.03  175.30   0.0020000
   30.72  125.97 -134.61   0.0020000
  -51.94   92.31   -1.09   0.0020000
 -173.64  127.55 -134.82   0.0020000
  122.68  126.36  134.33   0.0020000
   65.20   57.13  -47.91   0.0020000
  100.61  124.39  -45.87   0.0020000
 -165.80   75.69   72.09   0.0020000
   75.96   55.78  -44.43   0.0020000
  179.95   88.20   88.31   0.0020000
  127.49   54.78   43.48   0.0020000
  170.28  126.52  133.93   0.0020000
   40.29   91.25   89.67   0.0020000
  124.30  100.54  -48.95   0.0020000
   23.03   15.54   28.82   0.0020000
  -35.60   54.41  135.11   0.0020000
    0.07  124.98 -133.92   0.0020000
   -8.91   58.83 -129.60   0.0020000
   16.25   52.38 -134.01   0.0020000
   54.71  124.62   47.42   0.0020000
  -80.82  124.79  134.80   0.0020000
 -143.72   55.39 -136.56   0.0020000
  109.87  120.75 -125.90   0.0020000
  126.58  125.52  -44.23   0.0020000
   71.91   55.46   43.68   0.0020000
  -70.64   53.55  -45.54   0.0020000
 -140.10  123.95   40.54   0.0020000
   25.80  141.45  -17.13   0.0020000
   28.91   15.73  -46.62   0.0020000
   12.79   91.62   90.16   0.0020000
   67.09   55.46  170.26   0.0020000
  -89.53   54.99  136.09   0.0020000
 -147.50  128.58   44.38   0.0020000
   97.76  131.06   36.82   0.0020000
   88.83   89.59  -89.00   0.0020000
 -169.17  126.06  -45.52   0.0020000
 -160.49   54.69 -134.72   0.0020000
  -37.93  171.08 -108.09   0.0020000
    9.06   86.23    1.61   0.0020000
 -118.94  121.98  132.42   0.0020000
   42.21   92.66  -93.36   0.0020000
  -95.64   53.90  -47.61   0.0020000
 -148.15  125.71 -137.55   0.0020000
  -94.65  124.55  -43.83   0.0020000
  -89.30   70.03   80.34   0.0020000
  173.11   58.15  138.58   0.0020000
  -79.78   83.96    8.15   0.0020000
   25.49  125.14  136.95   0.0020000
  -45.08  127.87  134.42   0.0020000
  138.31  127.26  131.93   0.0020000
 -175.26   77.58   90.91   0.0020000
   95.62   48.95   46.08   0.0020000
 -151.64  112.28   68.39   0.0020000
  147.03  124.12   44.36   0.0020000
  131.57   54.81  132.88   0.0020000
   95.55   90.39   96.67   0.0020000
   29.36   90.39  -89.97   0.0020000
   88.66   56.05  134.42   0.0020000
 -170.12  125.50   46.04   0.0020000
  -50.72  124.44  -44.89   0.0020000
   59.79   57.58   37.89   0.0020000
 -112.39   56.24   47.07   0.0020000
  -87.38   74.97 -109.58   0.0020000
   99.58  130.25  137.03   0.0020000
  -97.71  126.72  -47.13   0.0020000
   49.21  129.21   44.16   0.0020000
  158.07   91.59   86.99   0.0020000
  166.65   80.57 -154.52   0.0020000
   16.03  125.04   47.81   0.0020000
  120.85   49.51 -174.73   0.0020000
 -113.64  124.00   43.82   0.0020000
 -138.53  125.77 -135.32   0.0020000
   89.71   55.87   46.61   0.0020000
   50.10  124.61   44.92   0.0020000
  -31.84   52.37  135.05   0.0020000
   99.10    3.38  143.74   0.0020000
  103.81   90.13  178.79   0.0020000
  124.39   55.23  136.59   0.0020000
  -41.95  123.83 -133.01   0.0020000
  -69.85  140.81  -43.39   0.0020000
 -177.65   11.21 -175.99   0.0020000
 -112.44   97.92  -19.47   0.0020000
  -80.32  126.49   42.36   0.0020000
  135.40  120.37  -41.77   0.0020000
  164.95  124.30  134.81   0.0020000
 -148.02  124.84 -140.08   0.0020000
 -108.38  123.66  -47.11   0.0020000
  118.68   69.96  -74.18   0.0020000
   -0.97   52.52   49.34   0.0020000
  114.24   88.89 -177.43   0.0020000
 -124.74  124.75  132.37   0.0020000
 -101.19   55.19 -134.48   0.0020000
  129.26  124.65  133.68   0.0020000
  113.69   53.79   42.19   0.0020000
  160.76   55.62 -137.29   0.0020000
   28.17  123.64   47.80   0.0020000
 -152.95  123.15 -137.28   0.0020000
  132.23   59.45  -52.34   0.0020000
 -156.05   55.34  -47.72   0.0020000
  143.31   54.41  -45.51   0.0020000
  -75.15  126.08  -43.95   0.0020000
  -78.04   89.78   88.28   0.0020000
  -46.22   62.89  143.76   0.0020000
   72.74   95.11   -0.29   0.0020000
  164.37  170.66 -160.62   0.0020000
   31.73  176.87   73.91   0.0020000
   80.08  127.69 -135.97   0.0020000
 -122.66   54.07   41.85   0.0020000
   60.70  141.43  141.94   0.0020000
   25.30  125.40   44.22   0.0020000
   20.93  123.94 -134.10   0.0020000
   96.94   85.42  -93.98   0.0020000
  -27.37   96.30   -4.79   0.0020000
   34.58   57.01  -47.75   0.0020000
  103.65  139.00  -36.06   0.0020000
 -100.24  101.63   -0.36   0.0020000
  106.65   35.84   48.15   0.0020000
  -65.51  125.56  -45.88   0.0020000
  -67.78   54.52 -131.96   0.0020000
  171.98   40.35   36.53   0.0020000
  -54.90  128.35 -134.89   0.0020000
   25.36   88.34  178.73   0.0020000
    5.90  178.24 -170.82   0.0020000
   99.34   77.85  -58.14   0.0020000
   22.28  124.24 -135.05   0.0020000
   -5.96   49.99 -135.56   0.0020000
    8.20   57.15 -139.77   0.0020000
 -152.60   58.22  143.95   0.0020000
   72.42  127.65  -44.70   0.0020000
 -162.83   87.48    6.26   0.0020000
 -166.29   55.78 -135.46   0.0020000
  -35.47  126.27  -45.74   0.0020000
  -45.06   88.28  178.33   0.0020000
  124.04   56.61 -137.60   0.0020000
  -37.83  108.71 -171.96   0.0020000
  -28.19   58.21   38.56   0.0020000
 -138.37   53.06 -135.72   0.0020000
 -147.98   89.55  -90.33   0.0020000
  -72.02   86.49  -92.17   0.0020000
  -16.75   76.95   15.11   0.0020000
  155.89  176.64   77.00   0.0020000
  142.69   54.98   46.48   0.0020000
  167.76  127.50  135.38   0.0020000
 -154.27   91.67   93.25   0.0020000
  157.38  114.37 -117.77   0.0020000
 -125.00  117.09  147.40   0.0020000
   71.35   61.59 -123.71   0.0020000
 -133.46   89.65 -177.70   0.0020000
   21.59   86.86   -0.51   0.0020000
   58.65   51.68 -110.25   0.0020000
  -10.28  127.01   45.57   0.0020000
  -60.31  171.32  -86.38   0.0020000
  -34.96   87.66  -90.51   0.0020000
  -71.76  124.58   46.95   0.0020000
 -114.27  123.49 -137.47   0.0020000
  110.02  126.25 -135.68   0.0020000
 -113.59  124.79   45.64   0.0020000
  -74.62   96.06  178.60   0.0020000
  -96.91   94.72   90.28   0.0020000
  119.80   85.04  -89.84   0.0020000
  -89.11   63.84 -156.57   0.0020000
  -44.29   67.80  166.78   0.0020000
   -1.98   54.22  134.07   0.0020000
  140.73   53.04   44.54   0.0020000
  -84.36  139.09 -171.46   0.0020000
   32.18  123.94   44.02   0.0020000
   18.42  126.14  -45.35   0.0020000
  119.96  123.86 -134.83   0.0020000
 -122.21   60.93 -148.37   0.0020000
  -87.05   88.98  -86.23   0.0020000
  -47.08  126.98   45.77   0.0020000
  127.10   52.80  132.90   0.0020000
 -147.05  131.48  137.86   0.0020000
  -19.70   53.95  -45.22   0.0020000
   13.89  138.36   41.51   0.0020000
  -89.30  170.74   10.07   0.0020000
 -147.18   97.87  -62.70   0.0020000
  -65.61  123.70 -132.28   0.0020000
  -44.54  124.22  134.64   0.0020000
 -172.22  126.92 -134.22   0.0020000
 -110.94  124.48  -46.33   0.0020000
  -81.31  123.54  134.14   0.0020000
  -90.88  125.04  134.89   0.0020000
    8.49  125.79  -46.51   0.0020000
 -130.49  125.86  -41.46   0.0020000
 -165.38  123.78   40.54   0.0020000
  100.11  131.34  137.29   0.0020000
   48.81  124.89   45.19   0.0020000
 -110.29  125.47  -45.63   0.0020000
  152.79   55.56  -44.80   0.0020000
 -103.36  126.38 -135.50   0.0020000
   80.89   80.12   93.66   0.0020000
 -110.47  171.03 -154.21   0.0020000
  -99.74  124.38  -44.94   0.0020000
   63.23  123.51  127.61   0.0020000
  153.58   56.85   47.21   0.0020000
  -26.51  124.08 -136.65   0.0020000
  -16.24   29.40 -135.30   0.0020000
  -81.63  125.86   46.26   0.0020000
   14.01   53.70  135.58   0.0020000
   55.97   56.04 -137.47   0.0020000
  -82.97   54.56   37.80   0.0020000
  169.86  174.22  -64.78   0.0020000
  -17.71   54.94  136.15   0.0020000
  145.34  123.82 -136.83   0.0020000
  -89.45   55.79  136.78   0.0020000
 -142.83  128.50  134.78   0.0020000
 -157.82  126.63  139.92   0.0020000
   24.69   62.07  -27.71   0.0020000
   24.39   53.25  134.22   0.0020000
    4.49   49.57   45.97   0.0020000
 -156.99  100.95    0.81   0.0020000
  -50.33  178.41   36.79   0.0020000
  -46.14   94.86 -104.69   0.0020000
  -50.70   88.36  179.50   0.0020000
 -122.02   81.77  172.34   0.0020000
  176.71  122.06 -140.78   0.0020000
  -97.16   90.96   89.47   0.0020000
   43.96  125.04  133.00   0.0020000
  -53.32  124.12  134.81   0.0020000
  179.71   54.17  133.31   0.0020000
 -171.72  125.94  136.66   0.0020000
 -142.67   51.60 -139.49   0.0020000
   62.16   99.91 -169.56   0.0020000
   -5.83   82.71   78.73   0.0020000
 -104.58   55.61   47.45   0.0020000
  -64.09   59.97 -142.19   0.0020000
 -169.68   91.10    6.16   0.0020000
   30.67  128.42   44.26   0.0020000
  108.04   88.49  -92.61   0.0020000
  -30.76   84.12  169.91   0.0020000
  107.32  125.76 -135.38   0.0020000
  -15.77    8.34 -175.95   0.0020000
  -36.25   89.61  -92.10   0.0020000
    1.20  126.37  133.39   0.0020000
   25.04  124.06   43.27   0.0020000
  107.29   88.16   -1.36   0.0020000
  162.18   58.20   40.39   0.0020000
  -67.01  122.64   48.34   0.0020000
   43.74   91.47  -89.06   0.0020000
   99.44  172.15   60.00   0.0020000
  -95.64   43.08  -25.10   0.0020000
   21.18  122.35   54.05   0.0020000
 -108.15   83.61   92.29   0.0020000
   10.29  127.51  134.44   0.0020000
   86.69  120.35 -143.79   0.0020000
  -32.38  123.52 -132.69   0.0020000
  169.54  124.19  -44.15   0.0020000
   84.01   44.69   42.05   0.0020000
   78.43  124.46 -136.40   0.0020000
   98.60   54.16   45.97   0.0020000
   35.94  162.21   27.85   0.0020000
  113.82  121.58   40.93   0.0020000
 -173.53  126.36 -136.63   0.0020000
   74.21   87.31    1.30   0.0020000
 -135.00  131.65   43.48   0.0020000
   46.93   54.94 -136.29   0.0020000
 -141.94  124.81   44.43   0.0020000
  118.46  126.29 -133.10   0.0020000
 -113.28  117.56   46.47   0.0020000
  -31.08  125.41  134.73   0.0020000
   94.10   92.37  -92.02   0.0020000
   99.76   27.30 -139.19   0.0020000
 -104.05   90.43  179.20   0.0020000
    0.18  119.82  -35.64   0.0020000
  -90.58   54.64   46.47   0.0020000
 -136.96  122.58   43.21   0.0020000
 -103.16   52.33 -134.83   0.0020000
  153.18   89.40   91.70   0.0020000
  -54.95   92.86   86.83   0.0020000
  165.92  112.09  166.62   0.0020000
 -152.72  124.55  -46.70   0.0020000
  124.19   55.26 -137.27   0.0020000
  156.44  159.93  -11.34   0.0020000
   17.68   93.07 -104.17   0.0020000
  118.04   58.12  135.10   0.0020000
  -28.78  175.12   20.95   0.0020000
  -51.00   93.56 -177.10   0.0020000
  114.57  128.10  -43.73   0.0020000
  132.90   54.20  137.16   0.0020000
 -125.52   54.94  -46.14   0.0020000
 -104.37   17.51  -56.66   0.0020000
    9.32  126.62  -79.08   0.0020000
   68.45   85.75  -88.25   0.0020000
 -116.89  130.60 -134.46   0.0020000
  -20.25   54.94  -47.00   0.0020000
   52.73   52.23  -45.90   0.0020000
  -33.43   55.89   49.44   0.0020000
 -106.27   56.00  -53.17   0.0020000
   20.95  125.95  134.09   0.0020000
 -176.70  127.47  135.87   0.0020000
  164.32   52.63  134.13   0.0020000
 -101.41  125.35  -43.14   0.0020000
   35.68   90.52  179.34   0.0020000
    7.92  122.97  -44.83   0.0020000
   88.99   54.45 -135.22   0.0020000
  170.71  126.65  134.32   0.0020000
  131.02  119.89  128.15   0.0020000
  130.94  139.83  136.00   0.0020000
  139.55   96.21  -74.97   0.0020000
 -118.89   93.18  -84.30   0.0020000
  143.95   54.08  136.01   0.0020000
   39.68   84.53   83.90   0.0020000
 -168.48  126.53 -134.52   0.0020000
  -72.20  126.98  -46.96   0.0020000
 -168.77   54.50 -133.52   0.0020000
   79.02   54.08   43.90   0.0020000
   65.54   55.31  -46.73   0.0020000
   36.78   40.30  -47.80   0.0020000
 -142.60   38.56  112.51   0.0020000
 -156.30   95.72    9.71   0.0020000
 -129.58   52.71  -44.65   0.0020000
   51.14   55.52 -138.24   0.0020000
 -144.47  122.31  -45.87   0.0020000
 -170.84  118.41  -98.50   0.0020000
 -112.40  125.03 -138.40   0.0020000
 -109.46   55.34  137.30   0.0020000
  -87.75   56.87   45.70   0.0020000
 -163.90  123.30   46.26   0.0020000
  123.60  128.18  -44.64   0.0020000
  -34.86   56.24 -132.10   0.0020000
    6.52   89.86  -91.80   0.0020000
  123.40  157.80  -95.44   0.0020000
  -20.35   54.82 -136.83   0.0020000
  -59.91  123.23   42.09   0.0020000
  -64.56   58.76 -140.19   0.0020000
  157.03   53.70 -135.95   0.0020000
   22.46  178.80 -101.42   0.0020000
   66.28  126.09  135.91   0.0020000
  109.43   89.81 -177.72   0.0020000
   10.52  125.46 -136.33   0.0020000
  117.05  126.99 -133.27   0.0020000
   -4.88   55.40   46.37   0.0020000
 -112.39  123.04  140.39   0.0020000
 -157.01  125.57  -17.88   0.0020000
 -154.47  124.49  -47.38   0.0020000
  -83.23  129.49  135.20   0.0020000
    1.18   55.75   42.33   0.0020000
  176.05  122.41  123.25   0.0020000
   59.41   55.29 -136.38   0.0020000
 -177.63  127.82 -137.20   0.0020000
  -67.40   43.76 -117.91   0.0020000
  149.18  123.75  -42.82   0.0020000
   33.65    2.63 -139.51   0.0020000
   60.77   54.82  134.52   0.0020000
 -124.06   47.59  -30.95   0.0020000
  -70.57   54.78  137.07   0.0020000
 -147.59   88.36    4.06   0.0020000
   94.57  114.96  116.04   0.0020000
   44.28  122.44  -40.12   0.0020000
   -8.28   57.42   43.46   0.0020000
    5.46  124.38  133.25   0.0020000
   55.68  177.53 -137.08   0.0020000
  -70.30  126.76  133.90   0.0020000
  178.90    8.65 -161.10   0.0020000
   95.51  122.39  -50.00   0.0020000
  -66.35  104.71  166.35   0.0020000
  110.52   48.03  125.10   0.0020000
 -165.28   16.68  -40.83   0.0020000
   70.99  124.27   45.25   0.0020000
  118.02   52.58   43.62   0.0020000
  178.45  122.93 -138.24   0.0020000
 -164.90   51.70 -134.62   0.0020000
  118.43  124.82 -133.56   0.0020000
  -94.59   54.66  -45.48   0.0020000
 -111.98   55.80  131.96   0.0020000
  158.65   84.40   83.03   0.0020000
  -75.95   55.60 -136.87   0.0020000
   40.88  121.55  131.71   0.0020000
 -159.50   56.50   47.38   0.0020000
  -15.12  120.96  -38.30   0.0020000
  -13.27  126.42   44.69   0.0020000
   40.31   54.42  133.05   0.0020000
    7.26  103.46   91.51   0.0020000
 -152.31    3.09 -137.37   0.0020000
  -42.75   58.71  136.95   0.0020000
  -40.86   53.25   35.73   0.0020000
    7.49  127.44  136.52   0.0020000
 -124.51  126.15  -44.40   0.0020000
  151.92   12.64  129.30   0.0020000
  -41.19  124.49 -130.94   0.0020000
   50.58  123.81 -134.00   0.0020000
 -123.04  123.89  -47.78   0.0020000
   32.32  161.67  126.34   0.0020000
  -66.78  126.87   42.97   0.0020000
  -81.15   55.77   42.95   0.0020000
 -124.56  127.32  -44.51   0.0020000
 -164.93   53.59 -134.79   0.0020000
    4.40   55.49  135.64   0.0020000
   36.81   87.94    0.73   0.0020000
 -166.12  123.86 -133.35   0.0020000
   57.06   49.48  -37.63   0.0020000
  136.39    8.60 -142.23   0.0020000
  112.15   88.45 -178.04   0.0020000
 -101.46   53.70  134.53   0.0020000
  -99.12   88.17  177.27   0.0020000
  118.37  123.81  133.29   0.0020000
  145.57  155.14 -132.21   0.0020000
 -132.08   97.50    4.25   0.0020000
 -141.27   80.85   83.31   0.0020000
   59.69   55.33   51.62   0.0020000
  157.13  174.64  -38.33   0.0020000
 -166.56  110.49  -43.80   0.0020000
  -57.96  114.08    3.93   0.0020000
  105.36   87.54   -2.59   0.0020000
   28.25  124.44   45.71   0.0020000
   -7.56  124.75   45.30   0.0020000
 -116.65   94.37  -80.32   0.0020000
