TEXTURE AT STRAIN =    1.0000
   0.605   2.692   0.605  <-- length of average ellipsoid axes for phase
 -167.10   90.00  180.00  <-- Euler angles of average ellipsoid axes for phase
B       500
  108.74  125.06   44.67   0.0020000
 -116.91   48.99   45.00   0.0020000
  167.62   38.69   44.96   0.0020000
  146.35   62.06   32.17   0.0020000
  144.75   85.79    3.32   0.0020000
 -106.60    0.00    0.00   0.0020000
   15.47   59.83  -35.69   0.0020000
 -158.00  175.72  -19.45   0.0020000
  -48.19   54.92  134.94   0.0020000
  -66.70  125.76 -135.21   0.0020000
  -17.47  172.02  -48.10   0.0020000
   66.24  179.13  109.52   0.0020000
   40.69   55.01   44.80   0.0020000
   25.06  117.23  149.20   0.0020000
   50.41  119.96  -35.04   0.0020000
  -89.51   87.87  178.37   0.0020000
  110.17    1.74 -166.27   0.0020000
   87.04   70.37   20.71   0.0020000
   73.86   55.14 -136.02   0.0020000
  -57.02   14.47  139.05   0.0020000
 -145.36  124.51  -43.36   0.0020000
   -8.62  147.03 -134.84   0.0020000
  -76.22    2.73   46.10   0.0020000
  179.38   41.81 -135.07   0.0020000
  129.59   82.71   80.79   0.0020000
  115.91  122.31  -50.46   0.0020000
  -63.45   90.29  -89.24   0.0020000
   -8.31   68.42  156.91   0.0020000
  -86.13   90.00  -91.25   0.0020000
  -38.77  125.36  -44.71   0.0020000
  118.77   83.10   82.25   0.0020000
   19.54   54.49  -44.86   0.0020000
 -177.40  124.95  134.18   0.0020000
  -86.73   76.40 -104.08   0.0020000
  -42.86  125.62 -134.95   0.0020000
   35.43   55.26 -133.72   0.0020000
   22.98  126.64 -134.93   0.0020000
 -113.77   75.45 -166.27   0.0020000
 -123.55  111.47  113.17   0.0020000
   27.63   86.68   87.88   0.0020000
 -132.26  125.56   45.34   0.0020000
  114.57   88.61   91.02   0.0020000
  165.06   76.36 -166.19   0.0020000
  -60.37   54.67  134.95   0.0020000
  170.73   59.33 -126.26   0.0020000
 -153.38   92.44 -166.49   0.0020000
 -107.11   54.78   43.13   0.0020000
  129.95   55.31  134.58   0.0020000
  -52.31   54.73 -136.26   0.0020000
  -91.64   48.31 -135.34   0.0020000
  -95.60   16.37  -46.48   0.0020000
  -58.44   96.66  172.25   0.0020000
   37.22  125.14 -134.89   0.0020000
  167.54  168.75  -44.20   0.0020000
   70.74   54.71 -134.93   0.0020000
  -95.67  116.37  -29.72   0.0020000
   84.18  122.16  -50.98   0.0020000
  -25.43   53.87   44.55   0.0020000
  -86.69    0.00    0.00   0.0020000
   46.92   89.73   92.51   0.0020000
  157.76    1.13  -10.32   0.0020000
  -20.59  121.25  142.72   0.0020000
 -103.67   55.13 -134.94   0.0020000
  166.70  178.33  -64.91   0.0020000
  -52.62   55.42 -135.02   0.0020000
  164.97   54.81 -135.17   0.0020000
   20.71  134.66 -134.92   0.0020000
   41.11  125.30 -134.98   0.0020000
  -94.23   27.52   45.57   0.0020000
 -135.89   55.00 -135.65   0.0020000
   27.14   69.70   21.90   0.0020000
   -3.93   94.61  175.76   0.0020000
  113.03    6.85  136.73   0.0020000
 -117.77   77.44  -75.49   0.0020000
   60.43  174.56  127.03   0.0020000
  -60.00  178.57   23.27   0.0020000
    9.39  139.25 -134.97   0.0020000
  163.73   54.19   44.98   0.0020000
  134.55   81.74   83.13   0.0020000
    4.90  128.91   45.08   0.0020000
  178.31   64.91  152.19   0.0020000
   74.45    3.15  167.30   0.0020000
  -30.99  160.31  134.32   0.0020000
  -50.66  104.71 -165.02   0.0020000
   88.06    0.00    0.00   0.0020000
  155.82   81.24 -172.11   0.0020000
 -179.30   57.00  138.70   0.0020000
   55.14   90.02   92.54   0.0020000
   11.75  125.17   45.46   0.0020000
   12.73   55.31  -45.70   0.0020000
  145.47    8.30   27.03   0.0020000
   75.94   13.91   42.55   0.0020000
   95.01   86.82  176.98   0.0020000
   30.15  125.52 -134.80   0.0020000
  -51.98   91.11   -0.42   0.0020000
 -173.75  132.78 -135.02   0.0020000
  124.24  125.69  134.87   0.0020000
   72.78   64.00  -60.72   0.0020000
  102.27  124.94  -45.41   0.0020000
 -175.88   85.88   84.59   0.0020000
   77.64   54.99  -44.60   0.0020000
  179.97   89.17   89.17   0.0020000
  128.49   54.85   44.47   0.0020000
  172.44  125.90  134.79   0.0020000
   40.28   90.49   89.87   0.0020000
  126.51  118.04  -56.97   0.0020000
   34.10    6.15   29.11   0.0020000
  -35.62   54.77  135.03   0.0020000
    0.48  125.18 -134.56   0.0020000
  -22.50   72.60 -108.46   0.0020000
   17.38   48.06 -134.91   0.0020000
   56.30  122.93   49.82   0.0020000
  -80.52  125.20  134.83   0.0020000
 -143.70   55.17 -136.14   0.0020000
  117.41   98.72  -98.65   0.0020000
  126.37  125.24  -44.82   0.0020000
   70.81   55.07   44.33   0.0020000
  -72.63   54.17  -45.10   0.0020000
 -144.56  113.48   25.69   0.0020000
    2.08  156.99  -42.26   0.0020000
   30.06    5.75  -46.12   0.0020000
   12.79   90.67   90.09   0.0020000
   66.20   77.78  172.11   0.0020000
  -89.55   54.86  135.32   0.0020000
 -148.56  143.07   44.87   0.0020000
  106.36  130.58   44.61   0.0020000
   88.84   89.79  -89.60   0.0020000
 -167.99  125.46  -45.11   0.0020000
 -160.36   54.68 -135.05   0.0020000
  -35.59  175.82 -110.31   0.0020000
    8.06   87.98    1.01   0.0020000
 -121.78  119.23  124.03   0.0020000
   43.04   91.84  -92.19   0.0020000
  -95.69   54.64  -45.91   0.0020000
 -149.36  125.02 -136.19   0.0020000
  -95.89  125.02  -44.52   0.0020000
  -81.97   83.00   86.60   0.0020000
  164.82   65.36  152.73   0.0020000
  -74.50   87.05    3.94   0.0020000
   26.90  124.86  136.31   0.0020000
  -45.32  136.45  134.95   0.0020000
  141.48  126.12  134.43   0.0020000
 -176.72   85.16   90.63   0.0020000
   91.62   23.81   45.33   0.0020000
 -154.73   96.55   84.32   0.0020000
  148.84  124.80   44.62   0.0020000
  132.96   55.23  133.64   0.0020000
   94.89   90.30   93.05   0.0020000
   29.36   90.13  -89.95   0.0020000
   86.72   55.11  134.71   0.0020000
 -169.72  125.24   45.29   0.0020000
  -50.92  125.09  -45.04   0.0020000
   65.05   76.78   13.36   0.0020000
 -114.86   58.42   51.98   0.0020000
  -99.79   85.36  -96.22   0.0020000
  100.10  146.12  135.20   0.0020000
  -95.11  126.02  -45.57   0.0020000
   47.27  146.86   45.08   0.0020000
  158.58   90.81   88.40   0.0020000
  173.41   86.44 -171.79   0.0020000
   17.95  123.72   48.52   0.0020000
  116.65   69.89 -160.21   0.0020000
 -111.86  124.63   43.71   0.0020000
 -137.98  125.41 -135.12   0.0020000
   90.47   55.82   47.35   0.0020000
   50.20  125.16   45.08   0.0020000
  -32.18   46.05  135.00   0.0020000
  100.25    1.92  142.23   0.0020000
  103.80   89.97  179.49   0.0020000
  124.03   55.14  136.07   0.0020000
  -39.95  122.27 -129.15   0.0020000
  -62.19  169.86  -41.85   0.0020000
 -173.96    4.48 -178.46   0.0020000
 -102.61   92.72   -6.75   0.0020000
  -79.15  125.66   44.16   0.0020000
  138.79  117.59  -31.74   0.0020000
  165.59  124.92  134.93   0.0020000
 -152.62  118.63 -147.04   0.0020000
 -111.32  120.95  -53.25   0.0020000
  110.50   83.80  -86.04   0.0020000
    1.80   54.11   45.88   0.0020000
  114.45   89.48 -178.80   0.0020000
 -126.40  122.79  129.90   0.0020000
 -100.59   54.83 -134.90   0.0020000
  129.73  124.85  134.32   0.0020000
  113.46   54.58   44.16   0.0020000
  162.74   57.25 -140.11   0.0020000
   33.86  117.84   58.26   0.0020000
 -156.99  119.89 -144.86   0.0020000
  146.60   79.87  -79.36   0.0020000
 -153.73   57.97  -51.52   0.0020000
  142.93   54.64  -45.09   0.0020000
  -76.92  125.61  -44.85   0.0020000
  -78.05   89.92   89.26   0.0020000
  -58.92   77.05  165.86   0.0020000
   72.34   92.38   -0.16   0.0020000
  158.57  175.89 -161.43   0.0020000
   35.81  178.47   77.70   0.0020000
   80.94  133.46 -134.98   0.0020000
 -121.66   54.94   43.60   0.0020000
   66.16  166.47  140.83   0.0020000
   25.24  125.34   44.93   0.0020000
   19.12  124.78 -134.10   0.0020000
   98.06   86.99  -92.70   0.0020000
  -30.57   93.45   -2.66   0.0020000
   41.63   63.29  -59.66   0.0020000
  100.60  160.32  -42.59   0.0020000
 -100.80   94.61   -0.14   0.0020000
   96.08   10.19   49.49   0.0020000
  -65.44  125.36  -45.32   0.0020000
  -69.26   55.58 -132.95   0.0020000
  172.59   15.69   40.14   0.0020000
  -54.86  141.35 -135.05   0.0020000
   25.34   89.27  179.53   0.0020000
  176.70  180.00    0.00   0.0020000
  104.58   83.79  -79.48   0.0020000
   22.40  125.04 -134.90   0.0020000
   -4.29   25.94 -134.98   0.0020000
   17.06   70.81 -159.52   0.0020000
 -156.01   79.65  170.12   0.0020000
   72.38  134.65  -44.91   0.0020000
 -159.34   88.37    3.22   0.0020000
 -167.57   54.98 -135.33   0.0020000
  -33.77  125.69  -45.16   0.0020000
  -45.11   89.17  179.19   0.0020000
  130.30   62.21 -148.21   0.0020000
  -29.99   96.81 -176.89   0.0020000
  -17.28   77.91   12.49   0.0020000
 -139.61   52.66 -135.18   0.0020000
 -147.97   89.86  -90.17   0.0020000
  -71.05   87.96  -91.42   0.0020000
  -10.81   85.79    4.91   0.0020000
  155.18  178.34   75.91   0.0020000
  141.77   54.95   45.70   0.0020000
  167.27  132.19  135.01   0.0020000
 -155.01   90.83   91.60   0.0020000
  165.83   95.89  -96.33   0.0020000
 -111.30   97.13  172.05   0.0020000
   59.83   82.87  -97.56   0.0020000
 -133.44   89.82 -178.96   0.0020000
   21.77   88.47   -0.11   0.0020000
   59.60   63.58 -119.33   0.0020000
  -11.28  127.58   45.11   0.0020000
  -64.22  176.32  -89.42   0.0020000
  -34.94   88.92  -90.24   0.0020000
  -71.31  124.27   47.11   0.0020000
 -119.53  118.57 -147.09   0.0020000
  111.59  125.61 -135.13   0.0020000
 -114.50  125.19   45.10   0.0020000
  -76.43   92.86  179.45   0.0020000
  -96.60   92.30   90.18   0.0020000
  119.71   87.61  -90.10   0.0020000
  -93.23   81.90 -173.77   0.0020000
  -37.74   82.17  175.13   0.0020000
   -2.46   54.69  134.75   0.0020000
  139.47   52.74   44.97   0.0020000
  -51.09  147.14 -135.92   0.0020000
   33.75  124.75   44.21   0.0020000
   19.61  125.61  -44.96   0.0020000
  119.50  124.77 -134.90   0.0020000
 -121.40   81.42 -172.06   0.0020000
  -86.35   89.60  -88.13   0.0020000
  -48.96  127.31   45.04   0.0020000
  123.45   53.24  134.75   0.0020000
 -147.38  148.81  135.00   0.0020000
  -20.42   54.61  -45.05   0.0020000
    4.42  168.07   39.74   0.0020000
  -90.02  176.00   12.26   0.0020000
 -151.82   92.61  -81.50   0.0020000
  -60.33  118.16 -122.35   0.0020000
  -43.21  125.00  134.77   0.0020000
 -173.91  126.96 -134.92   0.0020000
 -110.00  124.90  -45.92   0.0020000
  -79.05  124.60  133.89   0.0020000
  -90.86  125.27  134.86   0.0020000
    8.32  125.43  -45.39   0.0020000
 -129.10  124.70  -43.18   0.0020000
 -170.10  112.98   25.06   0.0020000
  101.59  150.27  135.31   0.0020000
   48.61  125.23   45.15   0.0020000
 -110.09  125.36  -45.24   0.0020000
  153.45   54.92  -44.94   0.0020000
 -101.80  125.83 -135.19   0.0020000
   75.05   85.62   91.81   0.0020000
 -111.37  175.15 -149.18   0.0020000
 -100.04  125.09  -45.09   0.0020000
   58.56  109.72  110.94   0.0020000
  149.67   59.90   54.59   0.0020000
  -26.64  123.92 -137.74   0.0020000
  -15.77    6.92 -135.13   0.0020000
  -82.46  125.49   45.24   0.0020000
   15.67   54.36  135.12   0.0020000
   59.30   59.86 -144.45   0.0020000
  -78.79   60.30   34.59   0.0020000
  166.76  177.03  -65.31   0.0020000
  -18.16   54.94  135.37   0.0020000
  144.17  122.76 -139.71   0.0020000
  -89.32   56.07  137.61   0.0020000
 -143.19  142.76  134.88   0.0020000
 -157.15  124.94  136.73   0.0020000
   27.09   81.93   -6.34   0.0020000
   22.61   53.57  134.92   0.0020000
    0.82   23.84   45.40   0.0020000
 -155.84   94.41    0.06   0.0020000
  -87.15  180.00    0.00   0.0020000
  -38.70   91.60  -95.39   0.0020000
  -50.71   89.33  179.77   0.0020000
 -120.82   86.37  176.54   0.0020000
  165.79  104.76 -164.67   0.0020000
  -97.15   90.44   89.78   0.0020000
   42.62  124.73  133.68   0.0020000
  -52.46  124.97  134.82   0.0020000
 -179.96   54.60  134.36   0.0020000
 -171.73  125.36  135.54   0.0020000
 -147.57   52.77 -135.63   0.0020000
   60.43   93.68 -176.07   0.0020000
  -15.92   86.37   84.96   0.0020000
 -106.70   58.00   51.30   0.0020000
  -48.30   79.22 -168.30   0.0020000
 -171.32   90.46    2.81   0.0020000
   29.96  142.18   45.07   0.0020000
  107.79   89.09  -91.41   0.0020000
  -40.17   86.55  175.01   0.0020000
  107.76  125.34 -135.08   0.0020000
  -14.98    3.63 -175.71   0.0020000
  -36.30   89.81  -90.91   0.0020000
    3.17  125.80  134.68   0.0020000
   24.54  123.79   42.07   0.0020000
  107.32   89.06   -0.70   0.0020000
  174.81   70.32   20.93   0.0020000
  -57.51  114.01   63.57   0.0020000
   43.75   90.57  -89.59   0.0020000
  100.22  175.34   55.73   0.0020000
  -76.72   39.95  -44.75   0.0020000
   24.29  104.52   75.51   0.0020000
 -111.31   86.85   91.34   0.0020000
   11.18  132.50  135.06   0.0020000
   76.05   98.88 -170.78   0.0020000
  -27.53  119.61 -124.58   0.0020000
  167.96  124.79  -44.44   0.0020000
   89.19   17.47   43.38   0.0020000
   79.25  124.81 -135.88   0.0020000
   99.40   54.53   45.35   0.0020000
   25.49  173.07   28.67   0.0020000
  104.48  113.21   25.58   0.0020000
 -171.71  125.68 -135.42   0.0020000
   74.00   88.60    0.67   0.0020000
 -139.51  157.82   44.32   0.0020000
   47.30   54.87 -135.43   0.0020000
 -141.51  125.16   44.81   0.0020000
  116.69  125.60 -134.48   0.0020000
 -116.38  123.59   47.06   0.0020000
  -31.01  125.32  134.93   0.0020000
   94.00   91.18  -91.07   0.0020000
  108.95    8.34 -140.32   0.0020000
 -104.04   90.23  179.67   0.0020000
   11.53   98.98   -9.24   0.0020000
  -91.32   54.82   45.49   0.0020000
 -136.33  122.95   40.57   0.0020000
 -103.05   45.09 -135.07   0.0020000
  153.20   89.74   90.67   0.0020000
  -54.50   91.72   88.18   0.0020000
  159.56   97.28  176.19   0.0020000
 -152.90  124.59  -46.42   0.0020000
  125.49   56.26 -138.22   0.0020000
  161.33  173.22  -10.51   0.0020000
   22.65   91.69  -95.46   0.0020000
  118.77   55.57  135.27   0.0020000
  -30.62  177.62   20.75   0.0020000
  -50.11   92.38 -177.94   0.0020000
  113.21  135.61  -44.91   0.0020000
  131.88   54.77  135.91   0.0020000
 -125.18   54.79  -45.45   0.0020000
  -94.16    7.21  -55.36   0.0020000
    8.56  105.07  -77.10   0.0020000
   67.07   87.74  -89.00   0.0020000
 -114.99  155.52 -135.04   0.0020000
  -18.55   55.45  -46.50   0.0020000
   52.36   45.65  -44.94   0.0020000
  -37.68   65.08   62.24   0.0020000
 -101.40   67.16  -65.22   0.0020000
   22.31  125.54  134.89   0.0020000
 -177.67  130.84  135.03   0.0020000
  163.31   50.14  134.90   0.0020000
 -100.51  125.08  -44.22   0.0020000
   35.67   90.19  179.77   0.0020000
    7.40  124.64  -44.74   0.0020000
   88.74   54.61 -134.93   0.0020000
  172.45  126.13  134.90   0.0020000
  116.52  104.04  104.98   0.0020000
  136.10  170.67  137.21   0.0020000
  129.75   93.05  -83.98   0.0020000
 -122.52   91.85  -86.99   0.0020000
  144.79   54.52  135.28   0.0020000
   38.05   87.04   86.84   0.0020000
 -169.88  125.89 -134.93   0.0020000
  -69.19  126.41  -45.43   0.0020000
 -169.82   54.71 -134.58   0.0020000
   77.94   54.48   44.83   0.0020000
   65.50   55.31  -46.26   0.0020000
   47.02   11.16  -49.29   0.0020000
 -160.95   22.06  132.29   0.0020000
 -165.25   92.87    4.44   0.0020000
 -128.69   49.79  -45.07   0.0020000
   54.58   61.13 -146.52   0.0020000
 -142.51  124.34  -46.06   0.0020000
 -171.67   99.39  -94.35   0.0020000
 -114.64  122.63 -140.50   0.0020000
 -110.73   56.56  138.69   0.0020000
  -85.67   55.49   45.76   0.0020000
 -165.55  124.01   47.14   0.0020000
  123.62  140.13  -44.95   0.0020000
  -40.32   62.36 -121.72   0.0020000
    6.49   89.97  -90.72   0.0020000
  118.68  172.47 -102.18   0.0020000
  -18.69   55.20 -136.04   0.0020000
  -67.58  115.96   29.03   0.0020000
  -50.76   73.35 -162.34   0.0020000
  155.03   54.26 -135.23   0.0020000
  123.88  180.00    0.00   0.0020000
   64.70  125.60  135.28   0.0020000
  109.45   89.93 -178.97   0.0020000
    9.62  125.30 -135.32   0.0020000
  113.47  126.58 -134.72   0.0020000
   -4.65   55.18   45.76   0.0020000
 -105.79  107.72  161.37   0.0020000
 -155.63  108.63  -19.00   0.0020000
 -156.29  122.74  -50.04   0.0020000
  -82.65  148.28  134.93   0.0020000
    4.97   59.97   35.43   0.0020000
  172.52  105.10  105.00   0.0020000
   58.92   55.03 -135.65   0.0020000
 -174.17  128.55 -135.22   0.0020000
  -51.16   40.46 -134.74   0.0020000
  152.88  120.74  -36.68   0.0020000
   31.37    1.27 -137.20   0.0020000
   60.49   54.71  134.97   0.0020000
 -111.55   51.31  -44.23   0.0020000
  -71.73   55.25  136.25   0.0020000
 -146.28   88.96    2.16   0.0020000
   94.30   96.69   96.14   0.0020000
   54.84  108.84  -19.95   0.0020000
   -9.43   56.62   41.71   0.0020000
    4.92  124.31  133.04   0.0020000
   57.14  178.71 -135.62   0.0020000
  -68.00  126.44  134.74   0.0020000
 -175.60    3.90 -162.17   0.0020000
   84.58  107.32  -71.65   0.0020000
  -68.70   94.50  176.18   0.0020000
  100.36   49.26  134.63   0.0020000
 -170.00    5.81  -40.58   0.0020000
   70.09  125.03   45.16   0.0020000
  115.33   51.43   44.95   0.0020000
  169.32  114.65 -152.59   0.0020000
 -165.00   38.50 -135.07   0.0020000
  118.90  124.90 -134.31   0.0020000
  -94.77   54.72  -45.14   0.0020000
 -107.94   61.33  123.06   0.0020000
  155.27   86.79   86.19   0.0020000
  -75.48   55.91 -137.33   0.0020000
   34.86  116.09  119.41   0.0020000
 -165.01   60.93   56.22   0.0020000
   -1.02  102.00  -12.47   0.0020000
  -12.21  125.81   45.00   0.0020000
   41.43   54.88  134.20   0.0020000
    9.16   95.04   90.28   0.0020000
 -150.83    1.68 -138.83   0.0020000
  -41.40   57.27  139.41   0.0020000
  -39.12   57.44   39.18   0.0020000
    5.22  128.37  135.22   0.0020000
 -125.83  125.61  -44.95   0.0020000
  157.05    5.27  128.69   0.0020000
  -36.73  117.70 -121.54   0.0020000
   48.57  124.66 -133.87   0.0020000
 -127.68  118.48  -57.24   0.0020000
   22.05  173.27  125.99   0.0020000
  -63.96  126.20   44.52   0.0020000
  -80.04   56.76   41.01   0.0020000
 -125.10  130.22  -45.06   0.0020000
 -163.94   54.17 -135.07   0.0020000
    5.46   55.00  135.23   0.0020000
   36.80   89.01    0.43   0.0020000
 -165.73  123.32 -131.30   0.0020000
   64.81   50.75  -44.42   0.0020000
  139.25    4.70 -141.57   0.0020000
  112.22   89.27 -179.13   0.0020000
 -102.84   54.27  134.87   0.0020000
  -99.46   89.03  178.50   0.0020000
  117.91  123.16  131.05   0.0020000
  151.68  173.39 -130.84   0.0020000
 -126.54   93.82    2.26   0.0020000
 -135.49   85.96   86.95   0.0020000
   54.37   64.13   61.16   0.0020000
  157.04  176.83  -39.90   0.0020000
 -169.41  123.22  -43.18   0.0020000
  -56.10   97.94    2.35   0.0020000
  105.25   88.40   -1.65   0.0020000
   26.98  125.08   45.41   0.0020000
   -7.86  125.17   45.15   0.0020000
 -124.01   92.05  -85.75   0.0020000
