   STRAIN    AVACS    MODE1    MODE2    MODE3
   0.0000  17.5049   0.3479   0.1581   0.4940
   0.0000  17.5056   0.3479   0.1581   0.4940
   0.0000  17.5066   0.3478   0.1582   0.4941
   0.0000  17.5034   0.3476   0.1583   0.4941
   0.0001  17.5050   0.3474   0.1584   0.4942
   0.0001  17.5061   0.3472   0.1585   0.4943
   0.0001  17.5069   0.3469   0.1587   0.4944
   0.0001  17.5069   0.3467   0.1589   0.4945
   0.0001  17.5074   0.3463   0.1591   0.4946
   0.0001  17.5176   0.3460   0.1593   0.4947
   0.0001  17.5290   0.3456   0.1595   0.4948
   0.0001  17.5274   0.3453   0.1598   0.4950
   0.0001  17.5186   0.3449   0.1600   0.4951
   0.0002  17.5209   0.3445   0.1603   0.4952
   0.0002  17.5207   0.3441   0.1605   0.4954
   0.0002  17.5202   0.3437   0.1608   0.4955
   0.0002  17.5062   0.3433   0.1610   0.4957
   0.0002  17.5059   0.3429   0.1613   0.4958
   0.0002  17.4874   0.3425   0.1615   0.4960
   0.0002  17.4804   0.3421   0.1618   0.4961
   0.0002  17.4813   0.3417   0.1621   0.4962
   0.0002  17.4834   0.3413   0.1623   0.4964
   0.0002  17.4844   0.3409   0.1626   0.4965
   0.0002  17.4845   0.3405   0.1629   0.4967
   0.0002  17.4834   0.3401   0.1632   0.4968
   0.0002  17.4894   0.3396   0.1634   0.4969
   0.0002  17.4909   0.3392   0.1637   0.4971
   0.0003  17.4916   0.3388   0.1640   0.4972
   0.0003  17.4924   0.3384   0.1642   0.4973
   0.0003  17.4849   0.3380   0.1645   0.4975
   0.0003  17.4892   0.3376   0.1648   0.4976
   0.0003  17.4872   0.3372   0.1650   0.4977
   0.0003  17.4887   0.3368   0.1653   0.4979
   0.0003  17.4799   0.3364   0.1656   0.4980
   0.0003  17.4745   0.3360   0.1658   0.4981
   0.0003  17.4730   0.3357   0.1661   0.4982
   0.0003  17.4769   0.3353   0.1664   0.4984
   0.0003  17.4876   0.3349   0.1666   0.4985
   0.0003  17.4967   0.3345   0.1669   0.4986
   0.0003  17.5093   0.3341   0.1672   0.4987
   0.0003  17.5027   0.3337   0.1674   0.4989
   0.0003  17.5038   0.3333   0.1677   0.4990
   0.0003  17.4950   0.3329   0.1680   0.4991
   0.0003  17.4967   0.3326   0.1682   0.4992
   0.0003  17.4977   0.3322   0.1685   0.4993
   0.0003  17.5010   0.3318   0.1687   0.4994
   0.0003  17.5017   0.3314   0.1690   0.4996
   0.0003  17.5009   0.3311   0.1693   0.4997
   0.0003  17.5123   0.3307   0.1695   0.4998
   0.0004  17.5114   0.3303   0.1698   0.4999
   0.0004  17.5107   0.3299   0.1700   0.5000
   0.0004  17.5095   0.3296   0.1703   0.5001
   0.0004  17.5130   0.3292   0.1705   0.5003
   0.0004  17.5135   0.3288   0.1708   0.5004
   0.0004  17.5156   0.3285   0.1711   0.5005
   0.0004  17.5150   0.3281   0.1713   0.5006
   0.0004  17.5142   0.3277   0.1716   0.5007
   0.0004  17.5129   0.3274   0.1718   0.5008
   0.0004  17.5028   0.3270   0.1721   0.5009
   0.0004  17.5008   0.3267   0.1723   0.5010
   0.0004  17.5002   0.3263   0.1726   0.5011
   0.0004  17.4998   0.3260   0.1728   0.5012
   0.0004  17.5034   0.3256   0.1731   0.5013
   0.0004  17.5026   0.3252   0.1733   0.5014
   0.0004  17.5045   0.3249   0.1736   0.5016
   0.0004  17.5041   0.3245   0.1738   0.5017
   0.0004  17.5113   0.3242   0.1741   0.5018
   0.0004  17.5161   0.3238   0.1743   0.5019
   0.0004  17.5156   0.3235   0.1745   0.5020
   0.0004  17.5167   0.3231   0.1748   0.5021
   0.0004  17.5210   0.3228   0.1750   0.5022
   0.0004  17.5260   0.3225   0.1753   0.5023
   0.0004  17.5239   0.3221   0.1755   0.5024
   0.0004  17.5226   0.3218   0.1758   0.5025
   0.0004  17.5226   0.3214   0.1760   0.5026
   0.0004  17.5216   0.3211   0.1762   0.5027
   0.0004  17.5229   0.3208   0.1765   0.5028
   0.0004  17.5202   0.3204   0.1767   0.5029
   0.0004  17.5211   0.3201   0.1770   0.5030
   0.0004  17.5263   0.3198   0.1772   0.5030
   0.0004  17.5222   0.3194   0.1774   0.5031
   0.0004  17.5224   0.3191   0.1777   0.5032
   0.0004  17.5236   0.3188   0.1779   0.5033
   0.0004  17.5222   0.3185   0.1781   0.5034
   0.0004  17.5221   0.3181   0.1784   0.5035
   0.0004  17.5239   0.3178   0.1786   0.5036
   0.0004  17.5219   0.3175   0.1788   0.5037
   0.0004  17.5206   0.3172   0.1790   0.5038
   0.0004  17.5198   0.3169   0.1793   0.5038
   0.0004  17.5190   0.3166   0.1795   0.5039
   0.0004  17.5214   0.3163   0.1797   0.5040
   0.0005  17.5217   0.3160   0.1799   0.5041
   0.0005  17.5199   0.3157   0.1802   0.5042
   0.0005  17.5190   0.3154   0.1804   0.5042
   0.0005  17.5179   0.3151   0.1806   0.5043
   0.0005  17.5084   0.3148   0.1808   0.5044
   0.0005  17.5076   0.3145   0.1810   0.5045
   0.0005  17.5056   0.3144   0.1811   0.5045
   0.0005  17.5064   0.3143   0.1812   0.5045
   0.0005  17.5078   0.3142   0.1813   0.5046
   0.0005  17.5078   0.3141   0.1813   0.5046
   0.0005  17.5070   0.3140   0.1814   0.5046
   0.0005  17.4971   0.3139   0.1815   0.5046
   0.0005  17.4971   0.3138   0.1815   0.5047
   0.0005  17.4968   0.3137   0.1816   0.5047
   0.0005  17.4990   0.3136   0.1817   0.5047
   0.0005  17.4988   0.3135   0.1817   0.5047
   0.0005  17.4988   0.3134   0.1818   0.5047
   0.0005  17.4994   0.3134   0.1819   0.5048
   0.0005  17.4982   0.3133   0.1819   0.5048
   0.0005  17.4987   0.3132   0.1820   0.5048
   0.0005  17.4979   0.3131   0.1820   0.5048
   0.0005  17.4976   0.3131   0.1821   0.5048
   0.0005  17.4972   0.3130   0.1822   0.5049
   0.0005  17.4973   0.3129   0.1822   0.5049
   0.0005  17.4978   0.3129   0.1823   0.5049
   0.0005  17.4979   0.3128   0.1823   0.5049
   0.0005  17.4978   0.3127   0.1823   0.5049
   0.0005  17.4979   0.3127   0.1824   0.5049
   0.0005  17.4980   0.3126   0.1824   0.5049
   0.0005  17.4980   0.3126   0.1825   0.5050
   0.0005  17.4986   0.3125   0.1825   0.5050
   0.0005  17.4987   0.3125   0.1825   0.5050
   0.0005  17.4987   0.3124   0.1826   0.5050
   0.0005  17.4982   0.3124   0.1826   0.5050
   0.0005  17.5004   0.3123   0.1826   0.5050
   0.0005  17.5003   0.3123   0.1827   0.5050
   0.0005  17.5014   0.3123   0.1827   0.5050
   0.0005  17.5014   0.3122   0.1827   0.5050
   0.0005  17.5014   0.3122   0.1828   0.5050
   0.0005  17.5013   0.3122   0.1828   0.5051
   0.0005  17.5013   0.3121   0.1828   0.5051
   0.0005  17.5013   0.3121   0.1828   0.5051
   0.0005  17.5012   0.3121   0.1828   0.5051
   0.0005  17.5011   0.3121   0.1828   0.5051
   0.0005  17.5010   0.3121   0.1829   0.5051
   0.0005  17.5010   0.3120   0.1829   0.5051
   0.0005  17.5010   0.3120   0.1829   0.5051
   0.0005  17.5010   0.3120   0.1829   0.5051
   0.0005  17.5010   0.3120   0.1829   0.5051
   0.0005  17.5010   0.3120   0.1829   0.5051
   0.0005  17.5010   0.3120   0.1829   0.5051
   0.0005  17.5010   0.3120   0.1829   0.5051
   0.0005  17.5010   0.3120   0.1829   0.5051
   0.0005  17.5010   0.3120   0.1829   0.5051
   0.0005  17.5010   0.3120   0.1829   0.5051
   0.0005  17.5010   0.3120   0.1829   0.5051
   0.0005  17.5010   0.3120   0.1829   0.5051
   0.0005  17.5010   0.3121   0.1829   0.5051
   0.0005  17.5010   0.3121   0.1829   0.5051
   0.0005  17.5012   0.3121   0.1829   0.5051
   0.0005  17.5012   0.3121   0.1828   0.5051
   0.0005  17.5012   0.3121   0.1828   0.5050
   0.0005  17.5012   0.3122   0.1828   0.5050
   0.0005  17.5012   0.3122   0.1828   0.5050
   0.0005  17.5014   0.3122   0.1828   0.5050
   0.0005  17.5014   0.3122   0.1827   0.5050
   0.0005  17.5014   0.3123   0.1827   0.5050
   0.0005  17.5010   0.3123   0.1827   0.5050
   0.0005  17.5007   0.3123   0.1827   0.5050
   0.0005  17.5007   0.3124   0.1826   0.5050
   0.0006  17.5007   0.3124   0.1826   0.5050
   0.0006  17.5008   0.3125   0.1826   0.5050
   0.0006  17.4998   0.3125   0.1825   0.5049
   0.0006  17.4997   0.3126   0.1825   0.5049
   0.0006  17.4997   0.3126   0.1825   0.5049
   0.0006  17.4980   0.3127   0.1824   0.5049
   0.0006  17.4980   0.3127   0.1824   0.5049
   0.0006  17.4976   0.3128   0.1823   0.5049
   0.0006  17.4974   0.3128   0.1823   0.5049
   0.0006  17.4974   0.3129   0.1823   0.5048
   0.0006  17.4980   0.3130   0.1822   0.5048
   0.0006  17.5080   0.3130   0.1822   0.5048
   0.0006  17.5074   0.3131   0.1821   0.5048
   0.0006  17.5076   0.3132   0.1821   0.5048
   0.0006  17.5078   0.3132   0.1820   0.5047
   0.0006  17.5086   0.3133   0.1820   0.5047
   0.0006  17.5083   0.3134   0.1819   0.5047
   0.0006  17.5084   0.3135   0.1819   0.5047
   0.0006  17.5085   0.3135   0.1818   0.5047
   0.0006  17.5081   0.3136   0.1817   0.5046
   0.0006  17.5087   0.3137   0.1817   0.5046
   0.0006  17.5104   0.3138   0.1816   0.5046
   0.0006  17.5110   0.3139   0.1816   0.5046
   0.0006  17.5107   0.3140   0.1815   0.5046
   0.0006  17.5102   0.3140   0.1814   0.5045
   0.0006  17.5107   0.3141   0.1814   0.5045
   0.0006  17.5113   0.3142   0.1813   0.5045
   0.0006  17.5091   0.3143   0.1812   0.5045
   0.0006  17.5085   0.3144   0.1812   0.5044
   0.0006  17.5087   0.3145   0.1811   0.5044
   0.0006  17.5089   0.3146   0.1810   0.5044
   0.0006  17.5087   0.3147   0.1809   0.5043
   0.0006  17.5091   0.3148   0.1809   0.5043
   0.0006  17.5087   0.3149   0.1808   0.5043
   0.0006  17.5088   0.3150   0.1807   0.5043
   0.0006  17.5105   0.3151   0.1806   0.5042
   0.0006  17.5108   0.3152   0.1806   0.5042
   0.0006  17.5104   0.3154   0.1805   0.5042
   0.0006  17.5117   0.3155   0.1804   0.5041
   0.0006  17.5108   0.3156   0.1803   0.5041
   0.0006  17.5106   0.3157   0.1802   0.5041
   0.0006  17.5107   0.3158   0.1802   0.5040
   0.0006  17.5130   0.3159   0.1801   0.5040
   0.0006  17.5129   0.3160   0.1800   0.5040
   0.0006  17.5130   0.3162   0.1799   0.5039
   0.0006  17.5127   0.3163   0.1798   0.5039
   0.0006  17.5124   0.3164   0.1797   0.5039
   0.0006  17.5127   0.3165   0.1796   0.5038
   0.0006  17.5130   0.3166   0.1795   0.5038
   0.0006  17.5131   0.3168   0.1795   0.5038
   0.0006  17.5115   0.3169   0.1794   0.5037
   0.0006  17.5122   0.3170   0.1793   0.5037
   0.0006  17.5123   0.3172   0.1792   0.5037
   0.0006  17.5134   0.3173   0.1791   0.5036
   0.0006  17.5128   0.3174   0.1790   0.5036
   0.0006  17.5137   0.3175   0.1789   0.5036
   0.0006  17.5145   0.3177   0.1788   0.5035
   0.0006  17.5138   0.3178   0.1787   0.5035
   0.0006  17.5139   0.3180   0.1786   0.5034
   0.0006  17.5129   0.3181   0.1785   0.5034
   0.0006  17.5132   0.3182   0.1784   0.5034
   0.0006  17.5141   0.3184   0.1783   0.5033
   0.0006  17.5145   0.3185   0.1782   0.5033
   0.0006  17.5129   0.3186   0.1781   0.5032
   0.0007  17.5135   0.3188   0.1780   0.5032
   0.0007  17.5138   0.3189   0.1779   0.5032
   0.0007  17.5137   0.3191   0.1778   0.5031
   0.0007  17.5097   0.3192   0.1777   0.5031
   0.0007  17.5109   0.3194   0.1776   0.5030
   0.0007  17.5123   0.3195   0.1775   0.5030
   0.0007  17.5134   0.3196   0.1774   0.5030
   0.0007  17.5130   0.3198   0.1773   0.5029
   0.0007  17.5134   0.3199   0.1772   0.5029
   0.0007  17.5136   0.3201   0.1771   0.5028
   0.0007  17.5150   0.3202   0.1770   0.5028
   0.0007  17.5167   0.3204   0.1769   0.5027
   0.0007  17.5178   0.3205   0.1768   0.5027
   0.0007  17.5189   0.3207   0.1767   0.5027
   0.0007  17.5197   0.3208   0.1766   0.5026
   0.0007  17.5165   0.3210   0.1765   0.5026
   0.0007  17.5177   0.3211   0.1764   0.5025
   0.0007  17.5175   0.3213   0.1763   0.5025
   0.0007  17.5145   0.3214   0.1761   0.5024
   0.0007  17.5153   0.3216   0.1760   0.5024
   0.0007  17.5152   0.3217   0.1759   0.5023
   0.0007  17.5131   0.3219   0.1758   0.5023
   0.0007  17.5113   0.3220   0.1757   0.5022
   0.0007  17.5121   0.3222   0.1756   0.5022
   0.0007  17.5097   0.3223   0.1755   0.5022
   0.0007  17.5095   0.3225   0.1754   0.5021
   0.0007  17.5091   0.3226   0.1753   0.5021
   0.0007  17.5104   0.3228   0.1752   0.5020
   0.0007  17.5105   0.3229   0.1751   0.5020
   0.0007  17.5205   0.3231   0.1750   0.5019
   0.0007  17.5210   0.3233   0.1749   0.5019
   0.0007  17.5186   0.3234   0.1748   0.5018
   0.0007  17.5186   0.3236   0.1747   0.5018
   0.0007  17.5141   0.3237   0.1745   0.5017
   0.0007  17.5141   0.3239   0.1744   0.5017
   0.0007  17.5067   0.3240   0.1743   0.5016
   0.0007  17.5101   0.3242   0.1742   0.5016
   0.0007  17.5106   0.3243   0.1741   0.5015
   0.0007  17.5055   0.3245   0.1740   0.5015
   0.0007  17.5049   0.3246   0.1739   0.5014
   0.0007  17.5055   0.3248   0.1738   0.5014
   0.0007  17.5043   0.3250   0.1737   0.5014
   0.0007  17.5010   0.3251   0.1736   0.5013
   0.0007  17.5025   0.3253   0.1735   0.5013
   0.0007  17.4976   0.3254   0.1734   0.5012
   0.0008  17.4980   0.3256   0.1733   0.5012
   0.0008  17.5001   0.3257   0.1732   0.5011
   0.0008  17.4998   0.3259   0.1730   0.5011
   0.0008  17.5000   0.3260   0.1729   0.5010
   0.0008  17.4998   0.3262   0.1728   0.5010
   0.0008  17.4993   0.3263   0.1727   0.5009
   0.0008  17.5023   0.3265   0.1726   0.5009
   0.0008  17.4989   0.3267   0.1725   0.5008
   0.0008  17.4995   0.3268   0.1724   0.5008
   0.0008  17.4995   0.3270   0.1723   0.5007
   0.0008  17.4994   0.3271   0.1722   0.5007
   0.0008  17.4993   0.3273   0.1721   0.5006
   0.0008  17.4995   0.3274   0.1720   0.5006
   0.0008  17.5001   0.3276   0.1719   0.5005
   0.0008  17.5001   0.3277   0.1718   0.5005
   0.0008  17.5004   0.3279   0.1717   0.5004
   0.0008  17.5011   0.3280   0.1716   0.5004
   0.0008  17.5009   0.3282   0.1715   0.5003
   0.0008  17.5017   0.3283   0.1714   0.5003
   0.0008  17.5027   0.3285   0.1713   0.5003
   0.0008  17.5021   0.3286   0.1712   0.5002
   0.0008  17.5032   0.3288   0.1711   0.5002
   0.0008  17.5017   0.3289   0.1710   0.5001
   0.0008  17.5016   0.3291   0.1709   0.5001
   0.0008  17.5024   0.3292   0.1708   0.5000
   0.0008  17.5034   0.3294   0.1707   0.5000
   0.0008  17.5036   0.3295   0.1706   0.4999
   0.0008  17.5030   0.3297   0.1705   0.4999
   0.0008  17.5023   0.3298   0.1704   0.4998
   0.0008  17.5029   0.3300   0.1703   0.4998
   0.0008  17.5119   0.3301   0.1702   0.4997
   0.0008  17.5120   0.3303   0.1701   0.4997
   0.0008  17.5109   0.3304   0.1700   0.4996
   0.0008  17.5120   0.3305   0.1699   0.4996
   0.0009  17.5121   0.3307   0.1698   0.4995
   0.0009  17.5102   0.3308   0.1697   0.4995
   0.0009  17.5107   0.3310   0.1696   0.4995
   0.0009  17.5107   0.3311   0.1695   0.4994
   0.0009  17.5126   0.3313   0.1694   0.4994
   0.0009  17.5135   0.3314   0.1693   0.4993
   0.0009  17.5135   0.3315   0.1692   0.4993
   0.0009  17.5135   0.3317   0.1691   0.4992
   0.0009  17.5136   0.3318   0.1690   0.4992
   0.0009  17.5126   0.3320   0.1689   0.4991
   0.0009  17.5121   0.3321   0.1688   0.4991
   0.0009  17.5120   0.3322   0.1687   0.4990
   0.0009  17.5126   0.3324   0.1686   0.4990
   0.0009  17.5026   0.3325   0.1685   0.4990
   0.0009  17.5029   0.3327   0.1684   0.4989
   0.0009  17.5020   0.3328   0.1683   0.4989
   0.0009  17.5015   0.3329   0.1682   0.4988
   0.0009  17.5017   0.3331   0.1682   0.4988
   0.0009  17.4983   0.3332   0.1681   0.4987
   0.0009  17.4977   0.3333   0.1680   0.4987
   0.0009  17.4961   0.3335   0.1679   0.4986
   0.0009  17.4954   0.3336   0.1678   0.4986
   0.0009  17.5023   0.3337   0.1677   0.4986
   0.0009  17.5004   0.3339   0.1676   0.4985
   0.0009  17.5118   0.3340   0.1675   0.4985
   0.0009  17.5123   0.3341   0.1674   0.4984
   0.0009  17.5134   0.3343   0.1673   0.4984
   0.0010  17.5032   0.3344   0.1673   0.4983
   0.0010  17.4926   0.3345   0.1672   0.4983
   0.0010  17.4815   0.3346   0.1671   0.4983
   0.0010  17.4812   0.3348   0.1670   0.4982
   0.0010  17.4783   0.3349   0.1669   0.4982
   0.0010  17.4778   0.3350   0.1668   0.4981
   0.0010  17.4793   0.3352   0.1668   0.4981
   0.0010  17.4791   0.3353   0.1667   0.4980
   0.0010  17.4886   0.3354   0.1666   0.4980
   0.0010  17.4882   0.3355   0.1665   0.4980
   0.0010  17.4828   0.3356   0.1664   0.4979
   0.0010  17.4827   0.3358   0.1664   0.4979
   0.0010  17.4826   0.3359   0.1663   0.4978
   0.0010  17.4816   0.3360   0.1662   0.4978
   0.0010  17.4812   0.3361   0.1661   0.4978
   0.0010  17.4809   0.3362   0.1660   0.4977
   0.0010  17.4770   0.3364   0.1660   0.4977
   0.0010  17.4782   0.3365   0.1659   0.4976
   0.0010  17.4778   0.3366   0.1658   0.4976
   0.0010  17.4779   0.3367   0.1657   0.4976
   0.0010  17.4785   0.3368   0.1656   0.4975
   0.0010  17.4781   0.3370   0.1656   0.4975
   0.0011  17.4783   0.3371   0.1655   0.4974
   0.0011  17.4784   0.3372   0.1654   0.4974
   0.0011  17.4793   0.3373   0.1653   0.4974
   0.0011  17.4795   0.3374   0.1653   0.4973
   0.0011  17.4809   0.3375   0.1652   0.4973
   0.0011  17.4807   0.3376   0.1651   0.4972
   0.0011  17.4803   0.3377   0.1651   0.4972
   0.0011  17.4805   0.3379   0.1650   0.4972
   0.0011  17.4809   0.3380   0.1649   0.4971
   0.0011  17.4820   0.3381   0.1648   0.4971
   0.0011  17.4808   0.3382   0.1648   0.4970
   0.0011  17.4809   0.3383   0.1647   0.4970
   0.0011  17.4812   0.3384   0.1646   0.4970
   0.0011  17.4807   0.3385   0.1646   0.4969
   0.0011  17.4799   0.3386   0.1645   0.4969
   0.0011  17.4820   0.3387   0.1644   0.4969
   0.0011  17.4809   0.3388   0.1644   0.4968
   0.0011  17.4780   0.3389   0.1643   0.4968
   0.0011  17.4773   0.3390   0.1642   0.4967
   0.0012  17.4772   0.3391   0.1642   0.4967
   0.0012  17.4786   0.3392   0.1641   0.4967
   0.0012  17.4771   0.3393   0.1640   0.4966
   0.0012  17.4764   0.3394   0.1640   0.4966
   0.0012  17.4766   0.3395   0.1639   0.4966
   0.0012  17.4791   0.3396   0.1638   0.4965
   0.0012  17.4788   0.3397   0.1638   0.4965
   0.0012  17.4805   0.3398   0.1637   0.4965
   0.0012  17.4818   0.3399   0.1636   0.4964
   0.0012  17.4796   0.3400   0.1636   0.4964
   0.0012  17.4785   0.3401   0.1635   0.4964
   0.0012  17.4787   0.3402   0.1634   0.4963
   0.0012  17.4777   0.3403   0.1634   0.4963
   0.0012  17.4754   0.3404   0.1633   0.4963
   0.0012  17.4755   0.3405   0.1633   0.4962
   0.0012  17.4763   0.3406   0.1632   0.4962
   0.0012  17.4766   0.3407   0.1631   0.4962
   0.0013  17.4862   0.3408   0.1631   0.4961
   0.0013  17.4863   0.3409   0.1630   0.4961
   0.0013  17.4868   0.3410   0.1630   0.4961
   0.0013  17.4958   0.3411   0.1629   0.4960
   0.0013  17.4958   0.3412   0.1629   0.4960
   0.0013  17.4959   0.3413   0.1628   0.4960
   0.0013  17.4960   0.3413   0.1627   0.4959
   0.0013  17.5024   0.3414   0.1627   0.4959
   0.0013  17.5050   0.3415   0.1626   0.4959
   0.0013  17.5049   0.3416   0.1626   0.4958
   0.0013  17.5132   0.3417   0.1625   0.4958
   0.0013  17.5126   0.3418   0.1625   0.4958
   0.0013  17.5124   0.3419   0.1624   0.4957
   0.0013  17.5125   0.3420   0.1624   0.4957
   0.0013  17.5116   0.3420   0.1623   0.4957
   0.0014  17.5117   0.3421   0.1622   0.4956
   0.0014  17.5117   0.3422   0.1622   0.4956
   0.0014  17.5122   0.3423   0.1621   0.4956
   0.0014  17.5119   0.3424   0.1621   0.4955
   0.0014  17.5120   0.3425   0.1620   0.4955
   0.0014  17.5120   0.3425   0.1620   0.4955
   0.0014  17.5121   0.3426   0.1619   0.4954
   0.0014  17.5121   0.3427   0.1619   0.4954
   0.0014  17.5120   0.3428   0.1618   0.4954
   0.0014  17.5114   0.3429   0.1618   0.4953
   0.0014  17.5184   0.3429   0.1617   0.4953
   0.0014  17.5185   0.3430   0.1617   0.4953
   0.0014  17.5185   0.3431   0.1616   0.4953
   0.0015  17.5186   0.3432   0.1616   0.4952
   0.0015  17.5255   0.3433   0.1616   0.4952
   0.0015  17.5256   0.3433   0.1615   0.4952
   0.0015  17.5325   0.3434   0.1615   0.4951
   0.0015  17.5325   0.3435   0.1614   0.4951
   0.0015  17.5326   0.3436   0.1614   0.4951
   0.0015  17.5326   0.3436   0.1613   0.4951
   0.0015  17.5327   0.3437   0.1613   0.4950
   0.0015  17.5311   0.3438   0.1612   0.4950
   0.0015  17.5313   0.3438   0.1612   0.4950
   0.0015  17.5314   0.3439   0.1611   0.4949
   0.0015  17.5314   0.3440   0.1611   0.4949
   0.0016  17.5334   0.3441   0.1611   0.4949
   0.0016  17.5324   0.3441   0.1610   0.4948
   0.0016  17.5324   0.3442   0.1610   0.4948
   0.0016  17.5320   0.3443   0.1609   0.4948
   0.0016  17.5307   0.3443   0.1609   0.4948
   0.0016  17.5296   0.3444   0.1608   0.4947
   0.0016  17.5297   0.3445   0.1608   0.4947
   0.0016  17.5293   0.3446   0.1608   0.4947
   0.0016  17.5294   0.3446   0.1607   0.4947
   0.0016  17.5303   0.3447   0.1607   0.4946
   0.0016  17.5303   0.3448   0.1606   0.4946
   0.0016  17.5286   0.3448   0.1606   0.4946
   0.0017  17.5285   0.3449   0.1606   0.4945
   0.0017  17.5286   0.3450   0.1605   0.4945
   0.0017  17.5303   0.3450   0.1605   0.4945
   0.0017  17.5292   0.3451   0.1605   0.4945
   0.0017  17.5294   0.3452   0.1604   0.4944
   0.0017  17.5287   0.3452   0.1604   0.4944
   0.0017  17.5289   0.3453   0.1603   0.4944
   0.0017  17.5275   0.3453   0.1603   0.4944
   0.0017  17.5277   0.3454   0.1603   0.4943
   0.0017  17.5276   0.3455   0.1602   0.4943
   0.0018  17.5276   0.3455   0.1602   0.4943
   0.0018  17.5271   0.3456   0.1602   0.4943
   0.0018  17.5281   0.3457   0.1601   0.4942
   0.0018  17.5274   0.3457   0.1601   0.4942
   0.0018  17.5281   0.3458   0.1600   0.4942
   0.0018  17.5286   0.3458   0.1600   0.4942
   0.0018  17.5292   0.3459   0.1600   0.4941
   0.0018  17.5292   0.3460   0.1599   0.4941
   0.0018  17.5292   0.3460   0.1599   0.4941
   0.0018  17.5292   0.3461   0.1599   0.4941
   0.0019  17.5292   0.3461   0.1598   0.4940
   0.0019  17.5298   0.3462   0.1598   0.4940
   0.0019  17.5293   0.3462   0.1598   0.4940
   0.0019  17.5293   0.3463   0.1597   0.4940
   0.0019  17.5287   0.3464   0.1597   0.4939
   0.0019  17.5287   0.3464   0.1597   0.4939
   0.0019  17.5288   0.3465   0.1596   0.4939
   0.0019  17.5288   0.3465   0.1596   0.4939
   0.0019  17.5288   0.3466   0.1596   0.4938
   0.0019  17.5275   0.3466   0.1595   0.4938
   0.0020  17.5276   0.3467   0.1595   0.4938
   0.0020  17.5276   0.3468   0.1595   0.4938
   0.0020  17.5276   0.3468   0.1595   0.4937
   0.0020  17.5268   0.3469   0.1594   0.4937
   0.0020  17.5261   0.3469   0.1594   0.4937
   0.0020  17.5253   0.3470   0.1594   0.4937
   0.0020  17.5253   0.3470   0.1593   0.4936
   0.0020  17.5253   0.3471   0.1593   0.4936
   0.0020  17.5273   0.3471   0.1593   0.4936
   0.0021  17.5273   0.3472   0.1592   0.4936
   0.0021  17.5284   0.3472   0.1592   0.4936
   0.0021  17.5288   0.3473   0.1592   0.4935
   0.0021  17.5283   0.3473   0.1592   0.4935
   0.0021  17.5277   0.3474   0.1591   0.4935
   0.0021  17.5264   0.3474   0.1591   0.4935
   0.0021  17.5264   0.3475   0.1591   0.4934
   0.0021  17.5267   0.3475   0.1590   0.4934
   0.0022  17.5262   0.3476   0.1590   0.4934
   0.0022  17.5256   0.3476   0.1590   0.4934
   0.0022  17.5257   0.3477   0.1590   0.4934
   0.0022  17.5270   0.3477   0.1589   0.4933
   0.0022  17.5270   0.3478   0.1589   0.4933
   0.0022  17.5266   0.3478   0.1589   0.4933
   0.0022  17.5294   0.3479   0.1589   0.4933
   0.0022  17.5274   0.3479   0.1588   0.4932
   0.0023  17.5292   0.3480   0.1588   0.4932
   0.0023  17.5298   0.3480   0.1588   0.4932
   0.0023  17.5298   0.3481   0.1588   0.4932
   0.0023  17.5318   0.3481   0.1587   0.4932
   0.0023  17.5308   0.3482   0.1587   0.4931
   0.0023  17.5309   0.3482   0.1587   0.4931
   0.0023  17.5309   0.3482   0.1587   0.4931
   0.0023  17.5310   0.3483   0.1586   0.4931
   0.0024  17.5322   0.3483   0.1586   0.4931
   0.0024  17.5322   0.3484   0.1586   0.4930
   0.0024  17.5323   0.3484   0.1586   0.4930
   0.0024  17.5323   0.3485   0.1585   0.4930
   0.0024  17.5356   0.3485   0.1585   0.4930
   0.0024  17.5342   0.3486   0.1585   0.4930
   0.0024  17.5328   0.3486   0.1585   0.4929
   0.0025  17.5314   0.3486   0.1584   0.4929
   0.0025  17.5314   0.3487   0.1584   0.4929
   0.0025  17.5315   0.3487   0.1584   0.4929
   0.0025  17.5307   0.3488   0.1584   0.4929
   0.0025  17.5307   0.3488   0.1584   0.4928
   0.0025  17.5307   0.3489   0.1583   0.4928
   0.0025  17.5308   0.3489   0.1583   0.4928
   0.0026  17.5310   0.3489   0.1583   0.4928
   0.0026  17.5313   0.3490   0.1583   0.4928
   0.0026  17.5313   0.3490   0.1582   0.4927
   0.0026  17.5318   0.3491   0.1582   0.4927
   0.0026  17.5318   0.3491   0.1582   0.4927
   0.0026  17.5318   0.3491   0.1582   0.4927
   0.0026  17.5323   0.3492   0.1582   0.4927
   0.0027  17.5323   0.3492   0.1581   0.4926
   0.0027  17.5322   0.3493   0.1581   0.4926
   0.0027  17.5327   0.3493   0.1581   0.4926
   0.0027  17.5327   0.3493   0.1581   0.4926
   0.0027  17.5327   0.3494   0.1581   0.4926
   0.0027  17.5327   0.3494   0.1580   0.4925
   0.0028  17.5327   0.3495   0.1580   0.4925
   0.0028  17.5328   0.3495   0.1580   0.4925
   0.0028  17.5332   0.3495   0.1580   0.4925
   0.0028  17.5319   0.3496   0.1580   0.4925
   0.0028  17.5320   0.3496   0.1580   0.4924
   0.0028  17.5320   0.3496   0.1579   0.4924
   0.0029  17.5307   0.3497   0.1579   0.4924
   0.0029  17.5307   0.3497   0.1579   0.4924
   0.0029  17.5307   0.3498   0.1579   0.4924
   0.0029  17.5307   0.3498   0.1579   0.4923
   0.0029  17.5307   0.3498   0.1578   0.4923
   0.0029  17.5301   0.3499   0.1578   0.4923
   0.0029  17.5303   0.3499   0.1578   0.4923
   0.0030  17.5303   0.3499   0.1578   0.4923
   0.0030  17.5300   0.3500   0.1578   0.4923
   0.0030  17.5201   0.3500   0.1578   0.4922
   0.0030  17.5102   0.3500   0.1577   0.4922
   0.0030  17.5102   0.3501   0.1577   0.4922
   0.0031  17.5099   0.3501   0.1577   0.4922
   0.0031  17.5099   0.3501   0.1577   0.4922
   0.0031  17.5099   0.3502   0.1577   0.4921
   0.0031  17.5100   0.3502   0.1577   0.4921
   0.0031  17.5101   0.3502   0.1576   0.4921
   0.0031  17.5102   0.3503   0.1576   0.4921
   0.0032  17.5102   0.3503   0.1576   0.4921
   0.0032  17.5102   0.3503   0.1576   0.4920
   0.0032  17.5102   0.3504   0.1576   0.4920
   0.0032  17.5102   0.3504   0.1576   0.4920
   0.0032  17.5102   0.3504   0.1576   0.4920
   0.0032  17.5102   0.3505   0.1575   0.4920
   0.0033  17.5102   0.3505   0.1575   0.4920
   0.0033  17.5103   0.3505   0.1575   0.4919
   0.0033  17.5103   0.3506   0.1575   0.4919
   0.0033  17.5103   0.3506   0.1575   0.4919
   0.0033  17.5103   0.3506   0.1575   0.4919
   0.0034  17.5103   0.3507   0.1575   0.4919
   0.0034  17.5105   0.3507   0.1575   0.4918
   0.0034  17.5105   0.3507   0.1574   0.4918
   0.0034  17.5105   0.3508   0.1574   0.4918
   0.0034  17.5105   0.3508   0.1574   0.4918
   0.0035  17.5105   0.3508   0.1574   0.4918
   0.0035  17.5105   0.3509   0.1574   0.4918
   0.0035  17.5106   0.3509   0.1574   0.4917
   0.0035  17.5106   0.3509   0.1574   0.4917
   0.0035  17.5006   0.3509   0.1574   0.4917
   0.0035  17.5006   0.3509   0.1574   0.4917
   0.0036  17.5006   0.3509   0.1574   0.4917
   0.0036  17.5006   0.3509   0.1574   0.4917
   0.0036  17.5006   0.3510   0.1574   0.4917
   0.0036  17.5006   0.3510   0.1574   0.4917
   0.0036  17.5006   0.3510   0.1574   0.4917
   0.0037  17.5006   0.3510   0.1574   0.4917
   0.0037  17.5006   0.3510   0.1574   0.4916
   0.0037  17.5006   0.3510   0.1574   0.4916
   0.0037  17.5006   0.3510   0.1574   0.4916
   0.0037  17.5006   0.3510   0.1574   0.4916
   0.0038  17.5006   0.3510   0.1574   0.4916
   0.0038  17.5006   0.3510   0.1574   0.4916
   0.0038  17.5006   0.3510   0.1574   0.4916
   0.0038  17.5006   0.3510   0.1574   0.4916
   0.0038  17.5006   0.3510   0.1574   0.4916
   0.0039  17.5006   0.3511   0.1574   0.4916
   0.0039  17.5006   0.3511   0.1574   0.4916
   0.0039  17.5006   0.3511   0.1574   0.4916
   0.0039  17.5006   0.3511   0.1574   0.4916
   0.0039  17.5006   0.3511   0.1574   0.4915
   0.0040  17.5006   0.3511   0.1574   0.4915
   0.0040  17.5006   0.3511   0.1574   0.4915
   0.0040  17.5006   0.3511   0.1574   0.4915
   0.0040  17.5006   0.3511   0.1574   0.4915
