TEXTURE AT STRAIN =    1.0000
   1.644   1.644   0.364  <-- length of phase ellipsoid axes
  -18.62    0.00    0.00  <-- Euler angles (deg) of phase ellipsoid axes
B       500
   90.49  129.11    2.50   0.0020000
 -158.38   44.05   89.69   0.0020000
  129.18   33.92   85.35   0.0020000
  149.18   89.98   44.30   0.0020000
  146.68   51.85    0.37   0.0020000
   42.16   21.02 -149.30   0.0020000
    9.96   89.70  -43.95   0.0020000
 -140.29  139.07   -0.78   0.0020000
  -45.40   89.78  134.04   0.0020000
 -103.81  136.23 -179.81   0.0020000
  -55.90  140.84  -88.48   0.0020000
   47.54  146.49   89.76   0.0020000
   46.48   89.59   44.39   0.0020000
   35.58  131.37 -179.59   0.0020000
   62.97  131.91   -0.01   0.0020000
  -91.41   54.05  179.82   0.0020000
  124.03   37.47  178.89   0.0020000
   94.19   46.05   -0.26   0.0020000
   94.28   46.49  179.82   0.0020000
  -95.66   43.60 -179.80   0.0020000
 -127.17  133.51    0.00   0.0020000
   32.53  135.90  -89.82   0.0020000
  -91.44   21.85   62.10   0.0020000
 -140.54   37.48 -177.87   0.0020000
  130.79   90.00   46.75   0.0020000
  107.65   89.67  -46.21   0.0020000
  -62.47   90.00  -57.07   0.0020000
  -16.20   45.62 -179.40   0.0020000
  -86.11   90.45 -126.04   0.0020000
  -10.40  134.58    0.55   0.0020000
  120.71   90.13   49.36   0.0020000
  -16.39   43.85    0.51   0.0020000
  161.45  134.05   89.42   0.0020000
  -90.84   53.91  -90.66   0.0020000
   -4.82  136.43  -89.61   0.0020000
   16.15   46.64  -89.82   0.0020000
  -17.87  137.95 -178.88   0.0020000
 -109.81   45.92 -179.91   0.0020000
 -125.26   90.65  132.01   0.0020000
   26.20   51.60   89.36   0.0020000
 -101.21  135.29   90.19   0.0020000
  115.48   58.07   92.12   0.0020000
  169.33   51.05 -179.91   0.0020000
  -25.60   43.62   90.92   0.0020000
  158.26   46.57  -90.55   0.0020000
 -152.15   90.37 -135.34   0.0020000
  -81.86   45.25    0.37   0.0020000
  133.19   89.86  134.45   0.0020000
  -25.98   45.07 -179.38   0.0020000
  -52.15   44.64 -179.46   0.0020000
  -54.68   42.05  -89.77   0.0020000
  -60.29   90.56  138.69   0.0020000
   37.77   89.65 -135.10   0.0020000
 -152.02  141.84   -1.66   0.0020000
   73.20   87.56 -136.13   0.0020000
  -85.14  133.21    0.18   0.0020000
   69.49  131.20  -89.61   0.0020000
    8.97   44.49    0.49   0.0020000
  -82.40   30.00   -3.26   0.0020000
   46.54   90.07  129.14   0.0020000
  149.02   35.61   -1.39   0.0020000
  -13.00   90.24  139.29   0.0020000
 -104.93   90.41 -134.72   0.0020000
  143.78  144.61  -89.06   0.0020000
  -53.34   90.16 -134.84   0.0020000
  169.58   89.89 -136.76   0.0020000
  -21.19  137.74 -179.11   0.0020000
   15.93  133.12 -177.95   0.0020000
 -136.15   44.61   89.88   0.0020000
 -126.28   90.35 -137.09   0.0020000
   28.46   89.84   42.16   0.0020000
   -1.57  125.25  179.49   0.0020000
   72.83   36.94  179.31   0.0020000
 -118.28   90.45  -45.65   0.0020000
   25.41  140.93   89.85   0.0020000
  -81.02  143.86    1.27   0.0020000
  -31.74  136.21 -179.31   0.0020000
  125.07   41.46   88.19   0.0020000
  132.13   47.79   89.75   0.0020000
  -32.79  146.16    5.55   0.0020000
  169.82   46.73  179.44   0.0020000
   62.31   40.11 -179.69   0.0020000
  -71.99  137.57   90.69   0.0020000
  -55.27  130.38 -179.85   0.0020000
   51.78   19.66   35.94   0.0020000
  158.84   48.80  179.82   0.0020000
  175.49   90.17  135.12   0.0020000
   55.11   90.03  129.16   0.0020000
   32.12  132.26   89.94   0.0020000
   20.05   89.71  -45.61   0.0020000
  171.47   43.23   -0.57   0.0020000
  116.83   42.36   -0.71   0.0020000
   93.34   57.53  178.24   0.0020000
   64.86  136.12  -90.24   0.0020000
  -51.25  124.30   -0.93   0.0020000
 -132.98  140.32  -91.52   0.0020000
   86.97  136.01   89.80   0.0020000
   77.28   89.59  -47.15   0.0020000
   94.11   89.68  -46.64   0.0020000
 -173.96   89.84   49.66   0.0020000
   72.21   89.55  -44.31   0.0020000
 -178.62   72.79   77.62   0.0020000
  151.63   46.19   -0.50   0.0020000
  135.81  135.82   89.47   0.0020000
   41.29  121.88   90.37   0.0020000
  122.52   89.80  -45.40   0.0020000
   61.39   41.73    0.24   0.0020000
  -68.09   42.92  178.15   0.0020000
   21.75  132.83  -89.79   0.0020000
  -22.80   89.99 -132.63   0.0020000
  -24.48   43.28  -89.49   0.0020000
   71.89  132.78   89.87   0.0020000
  -83.22   90.48  134.59   0.0020000
 -125.99   49.26 -179.53   0.0020000
  119.68  128.04  -91.47   0.0020000
  155.07  134.79   -0.69   0.0020000
   82.18   88.72   40.45   0.0020000
  -33.60   43.51  -89.39   0.0020000
 -152.94  132.66    0.05   0.0020000
   40.37  135.21    0.17   0.0020000
   70.10   34.93  -88.28   0.0020000
   12.98  123.21   90.89   0.0020000
   62.73   45.34  179.95   0.0020000
 -112.31   47.12  179.81   0.0020000
  168.90  138.46   -0.29   0.0020000
   68.04  135.10   -0.09   0.0020000
   87.49   88.07  -61.40   0.0020000
  156.30  136.25  -90.47   0.0020000
  172.12   45.59  -91.72   0.0020000
  -15.96  139.42  -89.37   0.0020000
    9.39   52.92    0.21   0.0020000
 -126.79   90.47  134.06   0.0020000
   40.70   90.28 -123.48   0.0020000
  -68.65   45.27  -89.52   0.0020000
 -173.11  134.71  179.54   0.0020000
  -85.34   90.99  -41.53   0.0020000
  -83.61   46.91   90.42   0.0020000
  161.75   90.10  136.27   0.0020000
  -76.42   89.62   38.18   0.0020000
   46.54  133.77 -179.81   0.0020000
  -86.76  137.73   90.56   0.0020000
  108.04  135.14   89.57   0.0020000
 -176.04   48.09   89.44   0.0020000
   49.18   41.84   90.34   0.0020000
 -151.96  130.16   90.15   0.0020000
  142.17   89.93   44.12   0.0020000
  153.83   46.15   89.46   0.0020000
   95.11   89.55  129.89   0.0020000
   29.70  114.57  -87.11   0.0020000
   92.15   89.61  134.26   0.0020000
 -143.87  134.84   89.76   0.0020000
  -50.82   90.18  -44.57   0.0020000
   69.43   48.62   -0.10   0.0020000
 -123.07   90.14   47.74   0.0020000
  -98.08   90.26 -130.89   0.0020000
  142.11  136.50  179.48   0.0020000
 -129.89  135.43  -90.11   0.0020000
    5.12  137.93    0.44   0.0020000
  157.17   90.63   53.98   0.0020000
  172.37   90.17 -136.36   0.0020000
   35.06  133.75   90.31   0.0020000
  125.21   45.18  179.47   0.0020000
 -120.83   90.50   43.64   0.0020000
 -172.44  136.18  179.75   0.0020000
   79.80   89.43   47.65   0.0020000
   50.13   89.64   44.73   0.0020000
  -71.58   35.79  177.28   0.0020000
   65.26   34.21  179.21   0.0020000
  103.27   90.74  149.11   0.0020000
  105.48   47.37  179.57   0.0020000
  -31.68   90.21 -132.29   0.0020000
  -22.29  139.85    0.59   0.0020000
 -172.44   41.76  179.80   0.0020000
 -103.63   90.38  -42.94   0.0020000
 -109.26  135.17    0.11   0.0020000
  141.82   89.98  -44.46   0.0020000
  163.47   90.11  134.62   0.0020000
 -165.59  134.17  179.64   0.0020000
 -119.14   90.59  -47.39   0.0020000
  112.62   47.98  -90.04   0.0020000
  -29.09   44.85   90.61   0.0020000
  113.25   88.98 -144.86   0.0020000
 -142.64  133.42   90.00   0.0020000
 -106.20   89.97 -133.08   0.0020000
  113.18  123.99   93.59   0.0020000
  141.65   45.20   -0.59   0.0020000
  177.61   49.25  180.00   0.0020000
   39.03   89.67   49.95   0.0020000
 -163.07   90.39 -136.66   0.0020000
  145.03   89.58  -49.12   0.0020000
 -139.36   46.95  -90.30   0.0020000
  174.36   44.88  -90.39   0.0020000
  -42.05  135.34    0.60   0.0020000
  -77.53   90.40   56.48   0.0020000
  -58.52   90.28  136.63   0.0020000
   72.70  129.26    0.03   0.0020000
  141.01  139.35 -179.98   0.0020000
   46.55  143.36   88.97   0.0020000
   38.70  136.46 -179.92   0.0020000
  -98.29   45.47    0.22   0.0020000
  103.19  136.30  179.68   0.0020000
   -1.83  134.35    0.65   0.0020000
   27.27   89.62 -134.07   0.0020000
   96.09   55.24  -90.86   0.0020000
  -28.74  127.15   -0.45   0.0020000
   46.67   89.69  -46.97   0.0020000
  140.81  135.96   -0.55   0.0020000
 -100.54  132.11    0.16   0.0020000
   57.54   41.53   90.25   0.0020000
  -93.64  134.92  -89.71   0.0020000
  -90.02   45.75  -89.69   0.0020000
 -150.14   44.12   -0.21   0.0020000
  -13.75  143.90  -91.29   0.0020000
   25.99   67.66  171.83   0.0020000
   -2.05  146.74 -179.23   0.0020000
  102.98   89.66  -45.98   0.0020000
   22.53   89.68 -135.04   0.0020000
   37.19   40.39 -178.86   0.0020000
   17.62   87.22 -149.47   0.0020000
 -158.93   48.29  179.30   0.0020000
  114.06  138.88   -0.37   0.0020000
 -160.73   90.55   39.54   0.0020000
 -162.62   90.32 -135.65   0.0020000
  -69.11  136.02  -89.45   0.0020000
  -43.02   78.09  163.73   0.0020000
  135.37   89.65 -137.83   0.0020000
  -31.04  132.94 -179.55   0.0020000
  -18.72   88.99   36.41   0.0020000
  -99.62   43.60 -179.77   0.0020000
 -146.89   71.65  -99.69   0.0020000
  -73.18   53.76  -89.67   0.0020000
  -12.89   89.58   38.38   0.0020000
  168.01  143.10   89.44   0.0020000
  121.77   46.44   89.54   0.0020000
 -151.43  138.54  178.98   0.0020000
 -153.62   91.01  126.43   0.0020000
  163.70   90.61 -127.71   0.0020000
 -113.23   90.29  139.60   0.0020000
   61.79   89.07 -128.62   0.0020000
 -134.09   90.64 -144.67   0.0020000
   21.64   53.16   -0.45   0.0020000
   46.72   45.09  -89.89   0.0020000
   29.48  136.94   89.96   0.0020000
  -63.88  138.91  -89.06   0.0020000
  -36.16   54.79  -89.37   0.0020000
  -54.05  131.69   89.69   0.0020000
 -125.53   90.65 -137.75   0.0020000
   74.80  135.83  179.88   0.0020000
 -107.01   90.79   47.19   0.0020000
  -75.87  129.75  179.80   0.0020000
  -96.71  129.00   90.09   0.0020000
  119.46   50.96  -89.78   0.0020000
  -90.85   47.21 -179.65   0.0020000
  -39.94   46.82 -179.32   0.0020000
   27.04   44.64   90.36   0.0020000
 -178.79   42.73   -0.25   0.0020000
  -90.96  135.34 -179.71   0.0020000
   26.56   89.72   43.98   0.0020000
  -17.28  136.66  -89.14   0.0020000
  120.36   89.81 -135.01   0.0020000
 -118.35   48.90  179.86   0.0020000
  -87.17   89.97  -52.53   0.0020000
   -7.47  136.45   90.52   0.0020000
  161.61   44.62   89.39   0.0020000
 -105.48  136.38 -179.86   0.0020000
   15.97   42.67  -88.95   0.0020000
  -32.36  137.14    0.77   0.0020000
 -101.31  138.78    0.20   0.0020000
 -150.39   90.41  -46.10   0.0020000
  -54.81   90.97 -129.85   0.0020000
  -47.95   90.12  134.77   0.0020000
 -134.50  136.66  -90.29   0.0020000
 -120.80   91.25  -48.89   0.0020000
  -86.42   90.35  134.52   0.0020000
  -92.77   91.29  134.38   0.0020000
  -18.68  134.76  -89.39   0.0020000
 -107.18  134.77    0.13   0.0020000
 -178.13  132.04   -0.18   0.0020000
  143.49  136.59  179.48   0.0020000
   51.44   89.84   45.58   0.0020000
 -139.58  134.84  -90.05   0.0020000
  150.62   89.99  -44.90   0.0020000
 -140.88  136.59  179.74   0.0020000
   76.53   48.72   89.86   0.0020000
 -141.03  139.92  179.27   0.0020000
  -99.31   90.43  -44.81   0.0020000
   51.70  133.33   90.18   0.0020000
  142.79   90.02   46.34   0.0020000
  -36.71   90.01 -137.38   0.0020000
   21.69   31.29 -174.29   0.0020000
  -51.10  134.98   90.55   0.0020000
  -21.90   43.57 -179.51   0.0020000
   66.45   89.13 -141.88   0.0020000
  -64.38   45.65    0.52   0.0020000
  143.61  141.58  -89.69   0.0020000
  -40.18   46.58 -179.49   0.0020000
  134.73   89.81 -137.22   0.0020000
  -99.96   89.86  139.15   0.0020000
  174.88  141.20   90.26   0.0020000
 -134.25  135.01  179.87   0.0020000
   24.40   47.47   -0.01   0.0020000
   61.41   43.50   90.06   0.0020000
  -41.07   41.72   90.06   0.0020000
 -155.94  131.74    0.12   0.0020000
  -80.77  150.92    5.15   0.0020000
  -39.77   90.23 -132.33   0.0020000
  -52.05   57.12 -179.62   0.0020000
 -122.34   55.33  178.36   0.0020000
  166.59   90.49 -141.72   0.0020000
  -96.84  116.45   86.48   0.0020000
   23.10  133.47   90.47   0.0020000
  -55.51   90.18  135.02   0.0020000
 -153.18   45.35   89.67   0.0020000
 -144.38  135.15  179.76   0.0020000
 -112.61   44.92 -179.91   0.0020000
   62.84   92.74 -149.68   0.0020000
  -14.04   89.86   49.48   0.0020000
 -121.13   48.54   89.48   0.0020000
  -49.89   89.84 -137.59   0.0020000
 -170.67   90.53   39.87   0.0020000
  -12.08  137.73    0.74   0.0020000
  109.65   89.59 -124.06   0.0020000
  -38.38   90.31  139.51   0.0020000
   73.99  135.71 -179.99   0.0020000
  -11.40   40.68 -179.53   0.0020000
  -35.62   90.35 -125.05   0.0020000
  -29.26  135.24   90.63   0.0020000
   15.13   90.06   42.34   0.0020000
  105.96   58.86   -1.37   0.0020000
  175.77   90.19   42.58   0.0020000
  -54.78   90.35   47.38   0.0020000
   43.42  119.67  -87.11   0.0020000
  132.42  140.85   89.95   0.0020000
 -117.27   44.90    0.04   0.0020000
   28.68  132.76   90.46   0.0020000
 -109.87   50.24   89.98   0.0020000
  -30.49  137.55   90.92   0.0020000
   77.99   90.61 -144.18   0.0020000
  -21.30   90.03 -132.53   0.0020000
  175.24   90.18  -44.04   0.0020000
  130.91   43.09   -0.71   0.0020000
   68.25   90.56 -139.28   0.0020000
   67.94   44.70   89.90   0.0020000
   -1.28  137.76    0.46   0.0020000
  101.67   89.63   43.23   0.0020000
  155.32  135.36  179.40   0.0020000
   75.34   54.47    0.25   0.0020000
  178.30  137.65   -0.54   0.0020000
   69.06   46.35  179.97   0.0020000
 -146.78   90.79   43.01   0.0020000
  148.46  135.14  -90.61   0.0020000
 -110.83   90.43   45.28   0.0020000
  -59.67  135.21   91.04   0.0020000
   94.97  121.75  -92.27   0.0020000
  147.01   40.38  179.20   0.0020000
 -105.82   93.49  154.81   0.0020000
    9.58   89.87  -38.25   0.0020000
 -115.82   45.98   90.00   0.0020000
 -143.16   90.43   44.17   0.0020000
 -144.73   39.27  -90.39   0.0020000
  152.17   89.16  123.27   0.0020000
  -56.82   93.13   59.94   0.0020000
  161.04  133.15  179.38   0.0020000
 -169.49  129.75  -88.77   0.0020000
  142.67   47.09  179.67   0.0020000
  170.82  136.85   -0.58   0.0020000
   22.08   89.53 -132.45   0.0020000
  116.87   89.77  134.83   0.0020000
  -49.15  141.73    1.42   0.0020000
  -52.15  124.27 -179.28   0.0020000
  155.17  136.51   -0.58   0.0020000
  107.82   45.21  179.58   0.0020000
 -102.68   46.64  -89.73   0.0020000
  -61.50   41.43  -89.94   0.0020000
    4.33  134.42  -89.48   0.0020000
   68.58   51.95  -90.13   0.0020000
  -72.33  139.83  -89.44   0.0020000
   -0.20   46.17  -89.49   0.0020000
   94.64   43.15  -90.39   0.0020000
  -46.82   47.00   90.66   0.0020000
  -93.32   46.16  -89.71   0.0020000
  -10.23  135.30   90.61   0.0020000
 -136.94  136.87  179.66   0.0020000
 -155.60   43.48   89.85   0.0020000
  -77.33  134.29    0.33   0.0020000
   33.79  100.48  163.96   0.0020000
    9.13   89.74  -44.81   0.0020000
  121.58   44.23 -179.92   0.0020000
  133.41  136.50   89.58   0.0020000
  116.91   89.65  132.69   0.0020000
  175.68  141.15  179.01   0.0020000
  130.82   89.69  -47.75   0.0020000
 -120.89   90.82  -51.56   0.0020000
  114.13   44.65  179.49   0.0020000
   40.28   88.22   55.70   0.0020000
 -131.62  136.96  -90.34   0.0020000
 -105.50  135.58  -89.85   0.0020000
  166.17   45.64  -90.59   0.0020000
  110.40   44.78   -0.45   0.0020000
   84.03   47.79  -89.78   0.0020000
   85.79   42.17  -90.29   0.0020000
 -122.44   44.69   90.01   0.0020000
 -163.49   90.65   40.40   0.0020000
 -170.69   41.71   -0.57   0.0020000
   66.50   46.79  179.90   0.0020000
 -146.70   90.39  -45.36   0.0020000
 -170.55  134.20  -90.41   0.0020000
 -131.93  134.15  179.97   0.0020000
 -127.33   47.39  179.69   0.0020000
  -91.09   90.38   45.54   0.0020000
 -157.01   90.30   45.70   0.0020000
  165.39  139.43   -0.84   0.0020000
  -45.20   89.69 -127.10   0.0020000
    6.64   89.46 -124.43   0.0020000
  130.30  136.41  -90.46   0.0020000
    1.02   45.96 -179.49   0.0020000
  -71.89   90.15   42.04   0.0020000
  -51.18   89.92 -137.14   0.0020000
 -168.92   44.42  179.59   0.0020000
   30.74  149.40  -92.67   0.0020000
   98.99  135.40  179.64   0.0020000
  109.26   89.29 -144.72   0.0020000
  -14.81  134.35 -179.40   0.0020000
  151.32  135.60  -90.60   0.0020000
  -15.22   88.12   52.27   0.0020000
  -99.99  130.64  179.87   0.0020000
 -150.27  134.72   -0.26   0.0020000
 -171.36  132.02  -89.93   0.0020000
  -40.50  142.39 -179.87   0.0020000
   17.24   49.05    0.34   0.0020000
  167.54  133.76   89.43   0.0020000
   77.33   49.05 -178.99   0.0020000
  146.98  135.74  179.42   0.0020000
  -90.92   44.82  -89.72   0.0020000
  159.98   90.27  -42.28   0.0020000
   67.43   29.41 -174.80   0.0020000
   85.91   46.55   90.74   0.0020000
 -148.15   45.06   -0.27   0.0020000
  -92.68   46.07 -179.72   0.0020000
 -147.71   90.59   37.73   0.0020000
   91.43  129.63   89.77   0.0020000
   55.27   89.69  -39.23   0.0020000
   -2.26   89.82   44.49   0.0020000
   -5.03   91.57  126.82   0.0020000
   62.81  159.58 -129.71   0.0020000
 -106.38  136.00   90.14   0.0020000
 -159.08   40.47 -179.68   0.0020000
   84.49   90.02  -50.99   0.0020000
  -66.77  127.87  179.33   0.0020000
  139.73   44.76   89.39   0.0020000
  152.83   37.88   -1.54   0.0020000
   73.18   89.59   45.23   0.0020000
  156.73   44.07   -0.64   0.0020000
  166.02   90.14 -137.70   0.0020000
  153.49   40.62  -91.33   0.0020000
  137.91  132.39  -91.06   0.0020000
  -66.35   45.65  -89.25   0.0020000
  -96.52   48.27   90.43   0.0020000
  157.51   89.85   52.90   0.0020000
  -60.03   52.11 -177.63   0.0020000
   31.95   89.70  133.91   0.0020000
 -170.72   90.04   47.42   0.0020000
   -2.28   89.84  -41.04   0.0020000
  -50.34  137.25    0.99   0.0020000
   64.70   45.30   89.94   0.0020000
    9.17  132.14   90.58   0.0020000
 -120.68   27.35 -170.38   0.0020000
  -48.77   90.16  135.70   0.0020000
  -20.94   45.23    0.61   0.0020000
   44.03  135.74 -179.92   0.0020000
  -89.63  136.14    0.29   0.0020000
 -167.00   37.67   90.76   0.0020000
  -25.25  133.35  -89.51   0.0020000
   57.30   89.55 -134.15   0.0020000
 -133.59   94.82  -60.53   0.0020000
  -11.39  139.40   90.74   0.0020000
  -99.06  135.49    0.22   0.0020000
  -70.42   87.53   34.23   0.0020000
  -82.94  137.56    0.39   0.0020000
  156.84   42.08  -91.40   0.0020000
   -0.05   89.73  136.25   0.0020000
   38.12   55.99   -0.08   0.0020000
 -156.06   90.26 -133.26   0.0020000
   26.45   44.53    0.35   0.0020000
  175.24   37.04 -179.69   0.0020000
  110.09   86.66 -151.33   0.0020000
  -64.86   43.67   90.46   0.0020000
  -97.53   89.41  146.39   0.0020000
  108.08   89.66  132.95   0.0020000
 -170.72  141.55  -91.27   0.0020000
 -127.86  129.65    0.63   0.0020000
 -136.95   51.04   89.04   0.0020000
   43.21   45.73   90.09   0.0020000
 -167.09  145.07   -2.29   0.0020000
 -165.21   90.29  -45.01   0.0020000
  -56.38  133.78    0.42   0.0020000
  106.97   74.64  -14.05   0.0020000
   34.08   89.61   46.19   0.0020000
   -5.09   89.91   45.89   0.0020000
 -122.63   90.68  -49.24   0.0020000