TEXTURE AT STRAIN =    0.2000
   1.023   1.180   0.827  <-- length of average ellipsoid axes for phase
   90.03   90.76   89.58  <-- Euler angles of average ellipsoid axes for phase
B      1944
   29.62    9.85  -25.03   0.0002897
   34.82   10.52  -27.76   0.0002948
  -91.20   91.84  -67.13   0.0002988
   52.63    7.79    2.17   0.0003027
   47.73    6.74    9.83   0.0002926
   39.35    6.77   20.15   0.0002868
   19.03   17.77  -12.99   0.0008200
   22.47   18.46  -13.78   0.0008031
  -92.09   90.82  -75.84   0.0008091
   29.88   15.03   25.50   0.0008152
   25.67   14.03   33.03   0.0007836
   22.97   13.94   37.31   0.0007982
   15.17   27.14   -7.21   0.0010277
   18.05   28.10   -6.98   0.0011066
  -92.56   89.59  -85.47   0.0010815
  -77.28   96.50  -84.55   0.0010887
   19.30   23.05   40.60   0.0010928
   17.72   22.78   43.80   0.0010036
   13.71   37.15   -3.45   0.0009159
 -103.16   81.29  -93.67   0.0008998
  -92.65   88.77  -95.24   0.0009410
  -80.01   96.71  -94.83   0.0009508
  -69.74  103.67  -93.30   0.0009064
   15.88   32.19   47.05   0.0009199
 -107.02   73.80 -100.78   0.0005697
 -100.36   79.88 -103.54   0.0005513
  -92.36   88.04 -105.01   0.0005712
  -82.76   96.77 -105.22   0.0005717
  -74.09  104.83 -103.92   0.0005550
  -68.11  110.27 -102.76   0.0005698
 -103.84   71.30 -110.79   0.0002754
  -98.31   78.72 -113.33   0.0002823
  -92.13   87.33 -114.86   0.0002919
  -84.99   96.65 -115.43   0.0002861
  -78.23  105.61 -114.71   0.0002739
  -72.32  112.94 -113.36   0.0002721
 -100.56   69.01 -120.93   0.0001311
  -96.27   77.23 -123.27   0.0001436
  -91.39   86.45 -124.82   0.0001331
  -86.81   96.32 -125.49   0.0001306
  -81.85  106.10 -125.25   0.0001304
  -77.28  114.96 -124.32   0.0001227
  -96.75   66.95 -131.39   0.0000733
  -93.71   75.78 -133.42   0.0000899
  -91.19   85.45 -134.69   0.0000859
  -88.23   95.75 -135.52   0.0000875
  -85.29  106.34 -135.73   0.0000848
  -82.47  115.96 -135.48   0.0000659
  -92.33   65.45 -142.15   0.0000682
  -91.46   74.55 -143.51   0.0000808
  -90.33   84.54 -144.61   0.0000872
  -89.61   94.69 -145.50   0.0000937
  -88.54  105.79 -146.18   0.0000782
  -87.53  115.88 -146.64   0.0000580
   40.41   10.99  -33.41   0.0002940
  -91.16   90.50  -66.90   0.0002990
   57.94    8.63   -3.11   0.0002988
   54.46    7.53    3.17   0.0002997
   47.25    7.45   12.31   0.0002938
   35.93   10.27   28.59   0.0002902
   29.68   18.87  -21.14   0.0008505
  -92.07   87.68  -75.31   0.0008274
   37.67   16.07   17.77   0.0008173
   34.35   14.95   24.65   0.0008139
   32.23   14.80   28.37   0.0007959
   26.94   18.12   39.01   0.0008249
   25.25   28.21  -14.42   0.0010759
  -92.16   84.72  -84.59   0.0011586
  -75.63   91.99  -84.76   0.0011045
   27.66   24.06   32.87   0.0010994
   26.54   23.76   35.72   0.0011123
   23.21   27.06   44.51   0.0010395
   23.30   38.25   -9.47   0.0009639
  -91.18   82.02  -94.08   0.0009526
  -78.24   90.50  -94.95   0.0009848
   25.18   33.84   36.75   0.0009637
   24.10   33.29   40.11   0.0009193
   22.00   34.74   45.69   0.0009465
  -98.33   71.84 -100.68   0.0006010
  -89.35   79.99 -103.75   0.0005925
  -79.67   89.04 -105.09   0.0006079
  -70.96   97.61 -104.82   0.0005889
  -64.51  103.97 -104.03   0.0005667
   21.89   43.29   46.94   0.0005893
  -94.15   69.77 -111.01   0.0002940
  -87.31   78.42 -113.57   0.0003033
  -80.47   87.73 -115.06   0.0003053
  -73.75   96.95 -115.32   0.0002969
  -67.53  105.54 -114.44   0.0002812
  -63.30  111.26 -114.05   0.0002847
  -89.98   67.90 -121.39   0.0001357
  -85.32   76.96 -123.53   0.0001468
  -80.60   86.57 -124.92   0.0001380
  -75.70   96.44 -125.46   0.0001335
  -71.06  106.06 -125.09   0.0001314
  -67.09  113.83 -124.52   0.0001238
  -85.58   66.21 -131.96   0.0000673
  -82.85   75.61 -133.68   0.0000800
  -80.11   85.53 -134.82   0.0000764
  -77.23   95.90 -135.48   0.0000793
  -74.35  106.02 -135.56   0.0000761
  -71.54  115.20 -135.27   0.0000595
  -81.51   65.25 -142.38   0.0000559
  -80.27   74.60 -143.89   0.0000650
  -79.34   84.67 -144.74   0.0000685
  -78.45   95.04 -145.47   0.0000718
  -77.48  105.67 -145.95   0.0000627
  -76.71  115.72 -146.36   0.0000489
  -91.10   89.27  -66.47   0.0002975
   62.94    9.34   -8.10   0.0002989
   60.50    8.22   -2.82   0.0002964
   54.05    8.08    5.59   0.0002996
   42.01   10.57   22.41   0.0002978
   45.84   11.32   21.04   0.0002975
  -92.25   84.84  -74.28   0.0008744
   44.56   16.84   10.90   0.0008423
   41.94   15.70   17.28   0.0008227
   40.19   15.54   20.69   0.0008227
   34.50   18.15   31.15   0.0008248
   36.59   18.95   31.65   0.0008669
  -92.69   79.99  -82.80   0.0011249
   37.84   26.23   16.64   0.0011918
   34.95   24.75   26.08   0.0011240
   34.10   24.49   28.80   0.0011171
   31.29   26.25   35.50   0.0011606
   32.17   27.71   38.06   0.0011064
   32.10   37.53  -12.56   0.0010214
  -75.68   84.94  -94.16   0.0009898
   31.92   34.47   30.67   0.0009964
   31.04   33.99   34.26   0.0009709
   30.16   34.25   37.43   0.0009539
   29.73   36.94   43.08   0.0010030
   30.18   47.21   -8.20   0.0006313
  -76.99   81.38 -104.07   0.0006089
   31.43   44.84   30.12   0.0006049
   29.42   43.85   38.50   0.0005853
   28.93   43.75   41.41   0.0005771
   28.25   46.49   47.67   0.0006148
   29.00   57.12   -4.00   0.0003055
  -76.60   78.14 -113.89   0.0003067
  -68.67   89.16 -114.99   0.0003038
   29.00   54.04   41.15   0.0002941
   28.25   53.65   45.36   0.0002846
   27.38   56.07   51.86   0.0002942
   28.33   67.17    0.17   0.0001431
  -74.62   76.16 -123.81   0.0001529
  -69.44   87.04 -125.09   0.0001437
   30.61   64.53   37.41   0.0001407
   28.23   63.70   48.78   0.0001422
   27.45   63.94   53.12   0.0001328
   28.14   77.22    4.42   0.0000749
  -72.22   74.80 -133.91   0.0000898
  -69.38   85.56 -134.94   0.0000886
  -66.36   96.32 -135.47   0.0000976
   29.54   73.59   48.64   0.0000886
   27.97   73.39   56.21   0.0000705
   27.92   86.10    7.39   0.0000541
  -69.39   73.79 -144.20   0.0000707
  -68.61   84.49 -144.85   0.0000620
  -67.85   95.34 -145.46   0.0000685
  -66.74  106.09 -145.81   0.0000682
   29.02   82.79   58.56   0.0000463
   67.89    9.92  -13.07   0.0002964
   66.24    8.81   -8.54   0.0002978
   60.18    8.62   -0.48   0.0002993
   48.02   10.75   16.24   0.0003038
   51.29   11.54   15.44   0.0003052
  -91.02   88.17   -5.84   0.0003033
   51.14   17.36    4.34   0.0008877
   49.08   16.24   10.29   0.0008545
   47.53   16.10   13.56   0.0008448
   42.20   17.98   22.99   0.0008514
   43.63   18.80   24.18   0.0008689
   48.74   19.65   31.11   0.0009020
   44.23   26.37   10.31   0.0011642
   41.88   25.08   19.48   0.0012196
   41.23   24.92   22.13   0.0011582
   39.82   25.55   26.11   0.0011735
   39.57   26.81   29.81   0.0012376
   42.07   27.61   35.29   0.0011719
   40.46   35.87    7.09   0.0010585
   38.35   34.48   24.71   0.0010092
   37.76   34.24   28.31   0.0010078
   37.54   34.33   30.70   0.0010157
   37.24   34.99   34.00   0.0010131
   38.33   35.88   38.94   0.0010700
   37.11   45.21   -2.99   0.0006350
   36.99   44.36   25.45   0.0005992
   35.75   43.95   33.24   0.0005883
   35.73   43.97   35.90   0.0005860
   35.79   44.05   38.41   0.0005937
   36.03   44.52   42.74   0.0006324
   35.20   54.39   -5.74   0.0002891
   35.97   54.49   18.59   0.0002814
   34.92   54.05   35.89   0.0002783
   34.71   54.05   40.72   0.0002814
   34.81   54.06   43.64   0.0002795
   34.90   54.04   47.06   0.0002839
   34.42   64.30   -2.95   0.0001322
   34.72   64.62    8.06   0.0001393
   35.11   64.35   32.60   0.0001366
   34.28   64.36   44.64   0.0001392
   34.29   64.38   48.85   0.0001388
   34.39   64.34   52.26   0.0001268
   34.19   74.70    1.65   0.0000772
   34.22   74.72    7.50   0.0000896
   34.70   74.96   21.30   0.0000947
   34.76   74.54   43.25   0.0001070
   34.12   74.78   53.56   0.0000938
   34.15   74.77   57.74   0.0000723
   34.21   85.10    6.85   0.0000526
   34.24   85.11   11.13   0.0000642
   34.48   85.23   17.74   0.0000570
   35.09   85.12   34.16   0.0000643
   34.78   84.74   54.02   0.0000630
   34.23   85.11   62.81   0.0000449
   71.88    9.30  -14.21   0.0002952
   65.94    9.06   -6.16   0.0003006
   54.06   10.84   10.00   0.0003052
   56.82   11.66    9.73   0.0003102
  -90.92   87.21   -5.03   0.0003113
   72.91   10.40   41.88   0.0003037
   56.13   16.60    3.27   0.0009015
   54.67   16.49    6.53   0.0008761
   50.26   17.71   14.37   0.0008867
   51.05   18.51   16.27   0.0008972
   55.32   19.56   24.57   0.0009037
   57.74   17.63   57.75   0.0009241
   49.02   25.14   12.43   0.0012003
   48.60   25.09   14.96   0.0012664
   48.19   25.28   17.39   0.0012318
   47.90   25.81   20.48   0.0012516
   49.32   26.73   27.21   0.0013059
   50.80   26.09   64.01   0.0012210
   46.01   34.34   16.91   0.0010853
   45.94   34.33   20.23   0.0010449
   46.07   34.39   22.33   0.0010651
   46.24   34.42   24.60   0.0010872
   46.33   34.51   29.72   0.0010703
   46.93   34.81   59.05   0.0011060
   45.60   44.30   15.51   0.0006204
   45.25   44.25   23.34   0.0005829
   45.37   44.31   26.43   0.0005857
   45.54   44.35   29.25   0.0005958
   45.59   44.27   33.61   0.0005975
   45.31   44.30   47.90   0.0006269
   44.99   54.46    5.59   0.0002478
   44.99   54.36   23.16   0.0002441
   44.79   54.42   30.59   0.0002490
   44.94   54.46   34.39   0.0002573
   45.07   54.42   38.57   0.0002476
   44.96   54.35   45.87   0.0002486
   44.48   64.61   -1.12   0.0001035
   44.59   64.69   16.80   0.0001139
   44.55   64.56   31.36   0.0001170
   44.44   64.71   39.45   0.0001172
   44.56   64.68   44.20   0.0001095
   44.60   64.59   49.80   0.0001005
   44.30   74.89    1.39   0.0000640
   44.25   74.92   10.17   0.0000757
   44.32   75.01   25.51   0.0000838
   44.29   74.80   40.28   0.0000912
   44.22   75.00   49.49   0.0000797
   44.30   74.97   55.23   0.0000609
   44.26   85.29    6.60   0.0000397
   44.26   85.21   12.49   0.0000438
   44.22   85.20   20.28   0.0000453
   44.28   85.32   33.89   0.0000460
   44.22   85.12   49.84   0.0000442
   44.20   85.29   60.37   0.0000358
   71.45    9.42  -11.61   0.0002979
   60.17   10.86    3.66   0.0003059
   62.46   11.71    3.90   0.0003133
  -90.92   86.27   -4.08   0.0003160
   78.07   10.78   36.65   0.0003104
   77.57    9.70   40.05   0.0003027
   61.93   16.73   -0.73   0.0009245
   58.65   17.44    5.37   0.0009171
   58.90   18.18    7.86   0.0009399
   62.36   19.38   18.18   0.0009301
   64.60   17.73   50.87   0.0009249
   63.35   16.80   55.96   0.0009455
   56.93   25.11    6.39   0.0012552
   56.96   25.17    8.23   0.0013516
   57.03   25.27   10.60   0.0013208
   57.51   25.94   19.06   0.0013213
   58.08   25.66   56.98   0.0013727
   57.03   25.10   64.18   0.0012775
   56.04   34.76    9.31   0.0011514
   56.14   34.84   11.77   0.0011231
   56.28   34.87   14.50   0.0011386
   56.21   34.76   20.64   0.0011472
   56.26   34.86   50.33   0.0011263
   56.04   34.75   65.67   0.0011510
   55.36   44.67   11.84   0.0006241
   55.46   44.73   15.60   0.0006001
   55.60   44.77   19.10   0.0006006
   55.63   44.68   24.62   0.0005957
   55.36   44.70   40.30   0.0005967
   55.63   44.73   63.42   0.0006244
   54.43   54.53   11.07   0.0002189
   54.17   54.75   19.75   0.0002191
   54.36   54.66   24.58   0.0002260
   54.47   54.46   29.87   0.0002227
   54.25   54.40   38.53   0.0002083
   54.17   54.72   55.69   0.0002143
   53.04   65.04    5.14   0.0000798
   53.44   64.75   18.77   0.0000860
   53.34   64.95   28.37   0.0000907
   53.39   64.90   35.45   0.0000888
   53.30   64.43   42.30   0.0000772
   53.05   64.58   51.67   0.0000720
  -10.84   86.25 -165.35   0.0000527
   -7.94   95.72 -160.99   0.0000655
   -3.57  105.58 -154.90   0.0000734
  -14.53   63.27 -115.46   0.0000779
  -13.64   71.37 -111.83   0.0000643
  -12.58   78.46 -108.62   0.0000495
  -10.26   93.58 -172.87   0.0000175
   -9.09  100.79 -169.48   0.0000195
   -7.20  108.59 -165.43   0.0000222
   53.22   85.65   33.90   0.0000226
  -11.06   76.14 -120.85   0.0000210
  -10.98   85.59 -116.47   0.0000169
   66.35   10.83   -2.76   0.0003023
   68.21   11.70   -2.05   0.0003133
  -90.76   85.68   -3.01   0.0003181
   83.40   11.07   31.23   0.0003133
   83.36   10.02   34.15   0.0003103
   76.78    9.69   43.13   0.0003066
   67.24   17.24   -3.83   0.0009663
   67.14   17.89   -0.93   0.0009671
   69.85   19.16   12.20   0.0009734
   71.84   17.71   43.55   0.0009448
   70.89   16.91   48.21   0.0009471
   69.52   16.85   51.53   0.0009770
   66.45   25.38   -1.87   0.0013371
   66.56   25.39    0.66   0.0014407
   66.49   25.55   11.53   0.0013899
   66.59   25.46   48.45   0.0013840
   66.37   25.30   54.08   0.0014431
   66.39   25.33   56.23   0.0013473
   66.00   35.24    0.99   0.0012396
   66.10   35.27    4.33   0.0011978
   66.00   35.15   12.44   0.0012064
   66.10   35.27   42.43   0.0012126
   65.94   35.16   54.38   0.0012089
   65.95   35.17   58.17   0.0012342
   64.85   44.71    4.82   0.0006635
   64.98   44.65    9.01   0.0006289
   64.91   44.54   16.20   0.0006168
   64.59   44.74   34.13   0.0006085
   64.88   44.70   52.62   0.0006257
   64.64   44.76   60.80   0.0006589
   -0.68   81.70 -144.47   0.0002137
  -27.97   38.69  -94.88   0.0002165
  -24.31   44.23  -94.49   0.0002139
  -19.04   53.09  -94.07   0.0002025
  -11.02   65.61  -90.99   0.0001999
   -4.90   75.17  -87.06   0.0002090
   -0.68   84.92 -156.96   0.0000758
    3.81   92.58 -152.95   0.0000847
  -13.60   48.87 -107.05   0.0000863
  -11.87   56.70 -104.71   0.0000778
   -8.84   66.07 -102.94   0.0000688
   -4.78   75.96 -100.78   0.0000677
   -0.50   88.38 -165.84   0.0000614
    2.91   97.14 -162.51   0.0000790
    7.59  105.50 -157.90   0.0000864
   -4.86   61.28 -114.51   0.0000848
   -4.30   70.23 -110.96   0.0000702
   -2.89   79.34 -108.47   0.0000539
   -0.64   92.72 -172.24   0.0000338
    0.60  101.75 -169.39   0.0000408
    3.24  110.58 -165.78   0.0000416
    0.91   64.85 -124.52   0.0000424
   -0.55   74.01 -118.77   0.0000394
   -0.94   83.36 -115.04   0.0000286
   74.02   11.65   -8.06   0.0003071
  -90.59   85.28   -1.85   0.0003164
   88.90   11.30   25.61   0.0003163
   89.27   10.28   28.09   0.0003119
   81.99    9.87   38.01   0.0003144
   72.57   10.75   50.79   0.0003137
   75.62   17.69   -9.91   0.0010026
   77.72   18.98    6.67   0.0009941
   79.53   17.66   35.70   0.0009905
   78.79   16.96   39.97   0.0009651
   77.52   16.90   43.21   0.0009867
   75.92   17.11   46.92   0.0010264
   76.05   25.64   -9.28   0.0014159
   75.90   25.61    5.62   0.0015100
   75.93   25.62   38.72   0.0014567
   75.94   25.58   43.51   0.0014591
   75.94   25.60   45.74   0.0015313
   75.96   25.63   47.80   0.0014357
   75.69   35.48   -5.79   0.0013264
   75.52   35.37    5.64   0.0012724
   75.65   35.47   34.40   0.0012902
   75.59   35.41   43.30   0.0013164
   75.61   35.43   47.00   0.0013126
   75.62   35.48   50.11   0.0013271
   74.56   44.09   -1.43   0.0007091
   74.05   44.02    8.19   0.0006673
   74.45   44.23   28.84   0.0006552
   74.11   44.31   42.39   0.0006628
   74.09   44.33   49.36   0.0006900
   74.41   44.18   53.42   0.0007152
  -27.10   29.66  -91.58   0.0002325
  -20.75   37.03  -93.94   0.0002288
  -13.33   47.05  -95.50   0.0002228
   -5.35   58.36  -94.33   0.0002146
   -0.05   66.47  -92.56   0.0002197
    4.35   72.71  -90.25   0.0002297
   10.68   84.13 -158.73   0.0000908
   -4.81   39.56 -110.93   0.0000985
   -3.10   48.46 -108.81   0.0000941
   -0.06   58.28 -107.08   0.0000847
    4.40   67.49 -105.64   0.0000799
    7.89   76.24 -102.71   0.0000808
   12.49   88.63 -165.71   0.0000777
   14.77   97.23 -161.65   0.0000987
    6.26   51.61 -119.93   0.0001046
    6.69   60.59 -116.42   0.0000971
    8.34   69.67 -113.64   0.0000789
   11.05   79.52 -109.71   0.0000654
   13.44   90.85 -172.44   0.0000408
   15.26  101.37 -166.47   0.0000536
   16.12  110.48 -162.56   0.0000508
   11.89   64.27 -124.03   0.0000488
   12.32   72.66 -120.16   0.0000459
   12.92   81.34 -116.74   0.0000318
  -90.40   85.08   -0.64   0.0003090
   94.54   11.48   19.82   0.0003149
   95.32   10.49   21.87   0.0003179
   87.10    9.96   33.00   0.0003146
   78.78   10.64   44.36   0.0003207
   79.85   11.56   45.93   0.0003188
   85.81   18.89    1.38   0.0010217
   87.60   17.63   27.37   0.0010096
   87.05   17.00   31.28   0.0010189
   85.83   16.91   34.46   0.0009946
   84.56   17.04   37.72   0.0010218
   84.13   17.59   41.13   0.0010609
   85.31   25.75    0.93   0.0014660
   85.28   25.75   28.87   0.0015799
   85.34   25.74   33.05   0.0015487
   85.33   25.75   35.28   0.0015453
   85.33   25.77   37.45   0.0016146
   85.41   25.77   40.80   0.0015026
   85.06   35.48    1.01   0.0013958
   85.09   35.49   25.39   0.0013619
   85.17   35.48   32.23   0.0014074
   85.18   35.50   35.77   0.0014420
   85.16   35.51   39.09   0.0014047
   85.24   35.50   44.17   0.0014050
   83.88   43.67    1.34   0.0007618
   84.88   43.64   21.65   0.0007283
   84.08   43.86   31.67   0.0007290
   84.53   43.73   36.69   0.0007442
   84.79   43.68   41.05   0.0007494
   84.73   43.64   48.08   0.0007645
  -16.55   29.65  -94.39   0.0002534
   -5.06   41.26  -97.75   0.0002491
    1.21   50.01  -97.73   0.0002449
    6.01   57.41  -96.40   0.0002417
  -43.54   15.23  -14.96   0.0002472
  -27.84   21.49  -27.26   0.0002515
    2.98   30.74 -114.95   0.0001006
    5.40   40.41 -113.04   0.0001050
    7.92   49.76 -110.84   0.0000967
   11.57   58.76 -109.26   0.0000925
   13.74   67.05 -105.39   0.0000915
   17.09   75.27 -101.72   0.0000920
   20.51   88.28 -165.26   0.0000796
   16.12   42.84 -125.80   0.0001005
   15.89   51.83 -121.76   0.0001019
   15.97   61.08 -117.60   0.0000932
   17.70   70.32 -114.08   0.0000778
   18.67   79.43 -109.70   0.0000700
   21.43   91.61 -171.48   0.0000349
   22.30  101.07 -166.77   0.0000462
   24.22  110.18 -162.08   0.0000431
   20.12   64.92 -124.83   0.0000390
   20.20   73.64 -120.10   0.0000359
   20.73   82.48 -115.94   0.0000266
  100.28   11.63   13.91   0.0003071
  101.46   10.65   15.53   0.0003165
   92.19    9.96   28.01   0.0003210
   84.92   10.49   38.01   0.0003181
   85.62   11.44   39.99   0.0003246
  -90.21   85.09   60.58   0.0003204
   95.95   17.67   18.66   0.0010319
   95.56   17.05   22.25   0.0010337
   94.24   16.92   25.57   0.0010521
   93.06   17.00   28.71   0.0010199
   92.50   17.59   32.40   0.0010418
  -90.01   76.31   61.37   0.0010763
   94.58   25.77   19.03   0.0015104
   94.67   25.78   22.66   0.0016631
   94.66   25.76   24.85   0.0016397
   94.65   25.76   27.06   0.0016048
   94.72   25.77   30.89   0.0016488
   94.67   25.77   56.55   0.0015339
   94.66   35.50   15.67   0.0014721
   94.77   35.51   21.10   0.0014736
   94.76   35.50   24.47   0.0015273
   94.74   35.49   27.92   0.0015122
   94.79   35.49   34.41   0.0014467
   94.82   35.51   57.02   0.0014606
   95.10   43.64   11.87   0.0008318
   95.10   43.67   19.13   0.0008247
   95.38   43.72   23.60   0.0008219
   95.76   43.82   28.40   0.0008072
  -62.77   21.08   12.38   0.0007944
 -148.83   32.91  134.85   0.0008181
 -152.21   21.66   87.43   0.0002837
 -136.21   15.19   74.86   0.0002805
 -114.10   11.43   55.80   0.0002761
  -73.14   10.31   18.05   0.0002701
  -35.09   14.54  -16.23   0.0002722
 -164.14   30.34  154.91   0.0002769
  178.90   22.05  116.62   0.0001031
  165.77   67.10  166.44   0.0001040
  168.99   58.57  169.43   0.0000981
  171.66   49.62  171.96   0.0000973
  174.04   40.40  174.10   0.0000992
  176.27   30.85  175.92   0.0000996
  161.36   79.33  169.94   0.0000713
  162.51   70.22  174.28   0.0000861
  163.58   60.92  178.24   0.0000875
  163.75   51.67 -177.73   0.0000819
  163.61   42.68 -174.00   0.0000706
  161.95   33.88 -168.79   0.0000630
  159.27   82.46  176.08   0.0000174
  160.00   73.68 -179.98   0.0000227
  159.67   64.78 -175.53   0.0000219
  154.68  109.72 -138.25   0.0000192
  157.41  100.82 -132.95   0.0000170
 -103.37  127.74   96.12   0.0000140
  -63.25   84.80   -1.70   0.0003071
  -59.97   86.03   -3.59   0.0003187
 -117.08   86.35   64.74   0.0003246
 -114.04   85.25   64.37   0.0003208
  -90.02   85.29   61.79   0.0003248
  -66.35   83.82   58.81   0.0003172
  104.20   17.15   13.05   0.0010466
  102.53   16.92   16.85   0.0010518
  101.29   16.98   20.03   0.0010723
  100.58   17.64   24.07   0.0010250
  -87.62   76.43   63.58   0.0010417
  104.42   17.79   69.75   0.0010795
  104.02   25.67   12.32   0.0015696
  104.04   25.64   14.40   0.0017269
  104.04   25.62   16.59   0.0016756
  104.06   25.65   20.97   0.0015982
  104.06   25.67   52.02   0.0016476
  103.93   25.66   69.18   0.0015627
  104.31   35.50   10.07   0.0015793
  104.32   35.46   13.24   0.0015684
  104.32   35.44   16.79   0.0015704
  104.26   35.48   24.97   0.0015096
  104.41   35.42   52.73   0.0014605
  104.23   35.49   65.67   0.0015153
  105.51   44.15    6.79   0.0009321
  105.83   44.30   10.93   0.0009142
  105.71   44.23   17.75   0.0008703
  105.27   44.13   30.10   0.0008196
  105.88   44.03   51.00   0.0008228
  105.34   44.05   61.27   0.0008836
  174.99   72.18  151.74   0.0003256
  179.60   65.97  154.23   0.0003177
 -174.66   57.88  155.88   0.0003045
 -167.43   47.59  156.46   0.0002895
 -159.74   37.36  154.45   0.0002968
 -153.01   29.68  151.48   0.0003149
  -89.73   78.99  -44.90   0.0001107
  -84.39   77.19  -54.26   0.0001076
 -111.46  127.41   -6.55   0.0001044
 -178.67   48.24  170.59   0.0001056
 -175.70   39.36  171.22   0.0001083
  -94.84   82.12   23.92   0.0001081
  -92.45   71.91  -42.69   0.0000703
 -108.36  124.64    9.00   0.0000865
 -110.24  120.54   -1.67   0.0000902
 -112.37  115.60  -10.92   0.0000848
 -101.95   78.46   36.39   0.0000744
  -97.85   74.87   27.33   0.0000657
 -102.75  122.69   23.09   0.0000320
 -106.48  119.06   12.94   0.0000404
 -109.50  114.80    3.46   0.0000383
 -106.40   77.27   49.61   0.0000331
 -104.15   73.43   40.40   0.0000299
  -97.61  126.69   95.14   0.0000254
 -119.51   88.38   66.51   0.0003075
 -117.04   87.40   65.50   0.0003205
 -113.60   86.19   65.08   0.0003266
  -89.84   85.69   62.95   0.0003188
  -66.89   83.94   60.12   0.0003205
  -63.46   84.87   59.49   0.0003157
  110.49   16.89    8.58   0.0010527
  109.17   16.95   11.82   0.0010579
  108.24   17.73   16.27   0.0010658
  -86.22   76.87   65.94   0.0010108
  112.83   18.01   60.83   0.0010343
  112.86   17.30   63.79   0.0010853
  113.57   25.39    3.92   0.0015966
  113.58   25.36    6.03   0.0017252
  113.38   25.51   11.21   0.0016410
  113.44   25.64   46.70   0.0015692
  113.40   25.44   59.29   0.0016540
  113.51   25.43   62.00   0.0016014
  113.96   35.23    2.06   0.0016447
  113.97   35.21    5.70   0.0015679
  113.80   35.32   16.41   0.0015307
  113.92   35.21   46.58   0.0014873
  113.81   35.30   55.63   0.0014965
  113.91   35.30   59.19   0.0015871
  115.30   44.75   -0.58   0.0010037
  114.99   44.63    7.52   0.0009262
  115.30   44.75   24.82   0.0008498
  115.04   44.53   43.38   0.0008241
  114.96   44.62   50.93   0.0008827
  115.09   44.70   55.36   0.0009750
 -174.83   74.72  148.22   0.0003651
 -168.90   65.57  151.97   0.0003378
 -161.28   53.51  154.16   0.0003185
 -155.79   44.52  154.26   0.0003146
 -151.96   38.64  154.75   0.0003381
 -179.35   81.16 -154.64   0.0003669
 -175.20   75.63  161.26   0.0001314
 -171.30   66.14  163.03   0.0001263
 -168.22   56.78  164.26   0.0001281
 -166.28   48.72  166.16   0.0001305
  -89.77   86.19   32.72   0.0001355
  -84.39   82.85   24.58   0.0001341
   91.01  109.39  -20.00   0.0000909
  -96.19  127.90    8.22   0.0001131
 -100.10  123.54   -2.22   0.0001173
  -94.05   81.94   45.33   0.0001100
  -90.29   77.58   36.22   0.0000964
  -85.34   74.47   26.71   0.0000834
  -89.79  124.30   24.39   0.0000681
  -94.91  120.75   13.40   0.0000858
  -98.41  116.18    3.36   0.0000743
  -94.67   74.07   50.00   0.0000670
  -90.97   70.22   40.54   0.0000592
  -82.56  127.04   96.47   0.0000496
 -117.07   88.30   66.11   0.0003075
 -113.59   87.02   65.78   0.0003212
  -89.70   86.43   64.01   0.0003247
  -67.07   84.00   61.31   0.0003145
  -63.67   84.87   60.69   0.0003185
 -119.42   89.27  126.99   0.0003153
  116.67   16.86    4.11   0.0010441
 -114.31   83.74   72.83   0.0010397
  -84.86   77.39   68.13   0.0010439
  -67.33   77.02   62.90   0.0009956
  121.45   17.53   54.59   0.0010331
  118.02   16.78   60.90   0.0010866
  122.94   25.16   -4.10   0.0015652
  121.89   25.71    2.70   0.0016580
  122.32   26.08   39.79   0.0015886
  122.92   25.36   49.36   0.0015597
  123.01   25.22   51.87   0.0016759
  123.03   25.17   53.73   0.0016118
  123.85   34.81   -5.57   0.0016037
  123.60   34.93    8.44   0.0014844
  123.70   34.83   38.78   0.0014653
  123.61   34.92   45.52   0.0015025
  123.74   34.91   48.41   0.0015554
  123.84   34.84   50.91   0.0016277
  124.26   44.75   -3.26   0.0009852
  124.54   44.76   18.81   0.0008768
  124.29   44.72   35.11   0.0008351
  124.30   44.80   40.95   0.0008775
  124.44   44.77   44.58   0.0009675
  124.55   44.72   48.36   0.0010245
  125.81   54.72    4.17   0.0003749
  125.75   54.40   21.20   0.0003410
  125.51   54.43   29.98   0.0003417
  125.62   54.67   35.46   0.0003643
  125.82   54.78   40.38   0.0003995
  125.52   54.51   49.07   0.0004120
 -164.59   72.31  160.26   0.0001502
  126.71   64.39   17.70   0.0001495
  126.58   64.90   24.52   0.0001559
  126.65   65.05   31.65   0.0001589
  126.55   64.82   41.41   0.0001650
 -169.28   83.44 -144.23   0.0001583
 -167.28   78.34  168.41   0.0001084
 -166.14   71.26  171.04   0.0001348
 -165.45   63.21  175.37   0.0001397
 -176.52  105.55 -145.22   0.0001264
 -171.92   95.73 -138.25   0.0001098
 -169.07   86.29 -134.40   0.0000978
 -168.88   85.31  175.86   0.0000778
 -168.77   76.00  179.71   0.0000987
 -170.28   64.53 -172.12   0.0000832
 -172.91  108.46 -134.56   0.0000738
 -170.82  100.65 -130.22   0.0000659
 -169.63   93.42 -127.26   0.0000557
 -112.97   88.18   66.17   0.0003066
  -89.57   87.22   64.96   0.0003196
  -67.63   84.55   62.63   0.0003218
  -63.85   85.37   61.91   0.0003119
 -119.38   90.52  127.31   0.0003180
 -116.72   89.85  126.51   0.0003137
 -112.37   85.48   73.65   0.0010169
  -85.74   78.96   70.57   0.0010144
  -69.08   77.92   66.05   0.0010293
  -64.78   77.96   64.38   0.0009919
 -120.54   88.46  135.06   0.0010272
 -118.44   87.70  134.59   0.0010705
  129.06   26.19   -3.93   0.0014760
  130.36   26.92   32.00   0.0015841
  132.00   25.97   39.50   0.0015595
  131.81   25.36   42.64   0.0015634
  131.34   25.16   45.16   0.0016627
  130.93   25.21   47.66   0.0015562
  132.92   34.87   -0.15   0.0014860
  133.48   34.65   29.93   0.0014076
  133.64   34.48   35.48   0.0014613
  133.80   34.46   37.85   0.0015479
  133.94   34.40   39.97   0.0015560
  133.89   34.40   43.20   0.0015549
  134.53   44.36   11.40   0.0009121
  134.28   44.33   26.30   0.0008453
  134.32   44.41   30.88   0.0008751
  134.49   44.37   33.78   0.0009585
  134.61   44.31   36.90   0.0009970
  134.25   44.35   44.68   0.0009812
  134.91   54.39   14.03   0.0003757
  134.80   54.44   21.46   0.0003637
  134.93   54.49   25.77   0.0003892
  135.08   54.46   29.63   0.0004250
  134.88   54.39   37.08   0.0004392
  134.89   54.49   54.36   0.0004179
  135.30   64.59   10.29   0.0001638
  135.35   64.69   15.91   0.0001708
  135.48   64.74   20.64   0.0001761
  135.35   64.59   28.84   0.0001793
  135.34   64.71   43.47   0.0001862
  135.45   64.62   61.28   0.0001738
  135.61   74.96    4.87   0.0001094
  135.69   75.03   10.45   0.0001360
  135.60   74.81   19.81   0.0001369
  135.62   75.03   34.83   0.0001213
  135.70   74.92   50.13   0.0001108
  135.61   74.86   58.83   0.0000992
  135.67   85.27   -0.37   0.0000573
  135.66   85.08   10.15   0.0000700
  135.63   85.31   26.56   0.0000619
  135.68   85.17   39.98   0.0000534
  135.63   85.16   47.71   0.0000484
  135.63   85.24   53.45   0.0000436
  -89.46   88.18   65.76   0.0003051
  -70.67   86.62   64.59   0.0003167
  -64.01   86.08   63.06   0.0003190
 -119.33   91.87  127.46   0.0003109
 -116.67   90.93  126.75   0.0003156
 -108.36   90.35  125.90   0.0003117
  -88.53   82.65   72.81   0.0009863
  -69.57   78.83   68.56   0.0009898
  -65.30   79.00   66.94   0.0010146
 -120.04   90.98  135.56   0.0009782
 -117.52   90.12  135.08   0.0009992
 -108.47   87.47  134.18   0.0010321
  -83.88   74.22   79.12   0.0014046
  -71.23   71.79   73.85   0.0015413
  140.30   25.75   33.66   0.0015482
  138.65   25.01   38.05   0.0015306
 -119.74   89.99  144.26   0.0015891
 -110.72   84.77  143.52   0.0014578
  141.28   36.10   20.68   0.0013937
  142.69   35.17   25.90   0.0013839
  142.45   34.42   29.30   0.0014771
  142.19   34.31   31.78   0.0015210
  141.56   34.58   35.46   0.0014603
 -107.58   80.43  152.55   0.0014238
  143.78   44.63   17.15   0.0008733
  144.21   44.11   21.54   0.0008712
  144.28   44.03   24.10   0.0009332
  144.25   44.01   26.79   0.0009735
  142.89   44.44   35.02   0.0009358
  142.69   45.28   62.38   0.0008987
  145.04   54.07   12.96   0.0003861
  145.16   54.09   16.42   0.0003995
  145.29   54.08   19.33   0.0004327
  145.07   54.07   24.26   0.0004448
  144.01   54.49   41.47   0.0004300
  144.67   54.41   65.69   0.0004049
  145.53   64.35    7.88   0.0001762
  145.66   64.39   11.28   0.0001865
  145.71   64.37   15.53   0.0001877
  144.93   64.34   27.65   0.0001869
  145.29   64.57   52.24   0.0001920
  145.50   64.29   63.13   0.0001837
  145.80   74.76    2.37   0.0001044
  145.85   74.78    6.58   0.0001232
  145.26   74.54   16.86   0.0001226
  145.35   74.91   39.16   0.0001146
  145.73   74.66   52.83   0.0001064
  145.74   74.68   58.51   0.0000976
  145.72   85.09   -2.71   0.0000306
  145.22   84.75    6.13   0.0000358
  144.96   85.11   26.49   0.0000336
  145.55   85.15   42.66   0.0000305
  145.71   85.05   49.05   0.0000281
  145.73   85.06   53.21   0.0000252
  -71.35   87.71   65.67   0.0003020
  -64.12   87.03   64.12   0.0003129
 -119.29   93.31  127.42   0.0003155
 -116.38   92.36  126.79   0.0003078
 -107.57   91.66  126.14   0.0003128
  -89.37   89.44  126.38   0.0003077
  -71.88   81.53   71.65   0.0009651
  -65.60   80.66   69.41   0.0009688
 -119.44   93.75  135.58   0.0009837
 -116.74   92.59  135.19   0.0009458
 -106.54   89.92  134.77   0.0009574
  -88.74   85.33  134.25   0.0009917
  -73.17   74.48   78.15   0.0013647
  -68.17   74.00   75.55   0.0015120
 -119.89   94.87  144.82   0.0014936
 -116.55   93.18  144.61   0.0014384
 -104.76   87.52  144.41   0.0014710
  -88.73   80.78  142.96   0.0013724
  -77.29   69.17   86.32   0.0013562
 -123.31   98.91  154.83   0.0013695
 -120.23   96.58  154.38   0.0014370
 -115.90   93.10  154.36   0.0014042
 -103.36   84.58  154.23   0.0013305
  -90.08   76.47  151.90   0.0013269
  -82.63   64.96   95.69   0.0008730
 -123.19  101.63  164.09   0.0008970
 -120.13   98.59  164.19   0.0009260
 -112.20   90.50  164.87   0.0008972
 -102.76   81.58  164.05   0.0008516
  -92.73   72.50  161.31   0.0008538
  -89.09   62.15  106.46   0.0004077
 -122.07  104.77  174.10   0.0004242
 -118.53   99.04  174.53   0.0004446
 -110.49   88.52  175.10   0.0004335
 -103.56   78.90  173.79   0.0004135
  -96.10   69.14  171.10   0.0004009
 -122.58  113.29 -175.41   0.0001899
 -120.13  107.22 -175.63   0.0001995
 -115.13   96.90 -174.64   0.0001936
 -110.30   86.87 -174.98   0.0001921
 -105.29   76.83 -176.32   0.0002008
 -100.01   66.11 -179.01   0.0001923
 -118.99  115.67 -165.28   0.0001080
 -116.45  106.80 -164.69   0.0001242
 -113.44   96.12 -164.56   0.0001249
 -110.45   85.58 -165.14   0.0001200
 -107.72   75.15 -166.19   0.0001171
 -105.11   65.42 -168.27   0.0001065
 -114.39  117.02 -154.25   0.0000583
 -113.35  105.96 -154.23   0.0000704
 -112.22   95.24 -154.60   0.0000667
 -111.44   84.45 -155.20   0.0000627
 -110.61   73.80 -155.87   0.0000606
 -109.45   66.06 -158.04   0.0000529
  -64.17   88.19   65.06   0.0002987
 -119.28   94.78  127.19   0.0003091
 -116.08   93.84  126.62   0.0003111
 -107.46   92.91  126.18   0.0003063
  -89.28   90.69  126.81   0.0003090
  -71.32   88.71  126.45   0.0003023
  -65.62   82.67   71.50   0.0009409
 -118.92   96.45  135.18   0.0009322
 -115.92   95.20  134.91   0.0009412
 -105.04   92.68  135.03   0.0009101
  -88.58   88.15  135.23   0.0009262
  -73.01   84.29  133.75   0.0009642
  -68.28   76.94   79.13   0.0013237
 -118.50   98.53  144.29   0.0014375
 -114.02   96.97  144.45   0.0013894
 -102.64   91.72  144.99   0.0013323
  -88.57   85.41  144.56   0.0013941
  -75.68   79.88  142.30   0.0013304
  -71.64   72.02   87.66   0.0013178
 -116.91  101.53  154.26   0.0012994
 -110.94   97.33  154.65   0.0013143
 -100.81   90.35  155.14   0.0012769
  -89.47   83.02  154.03   0.0012436
  -79.09   76.10  151.54   0.0012891
  -75.58   67.62   97.07   0.0008685
 -114.76  103.60  164.39   0.0008609
 -107.80   97.02  165.19   0.0008423
  -99.65   89.06  165.16   0.0008236
  -90.85   81.00  163.65   0.0008030
  -82.63   73.40  161.19   0.0008483
  -79.93   64.05  107.26   0.0004238
 -111.70  105.17  174.78   0.0004273
 -105.68   96.70  175.39   0.0004264
  -99.24   87.87  175.01   0.0004152
  -92.80   78.99  173.56   0.0004089
  -86.13   70.79  171.08   0.0004174
 -112.80  114.03 -175.34   0.0002041
 -108.62  105.83 -174.83   0.0002096
 -104.09   96.42 -174.57   0.0002016
  -99.42   86.65 -175.12   0.0002004
  -94.53   77.28 -176.55   0.0002149
  -90.07   68.33 -178.61   0.0002068
 -108.30  115.32 -164.65   0.0001233
 -105.56  106.04 -164.46   0.0001392
 -102.81   95.82 -164.56   0.0001481
  -99.99   85.60 -165.22   0.0001455
  -96.84   75.77 -166.46   0.0001420
  -94.21   66.44 -168.14   0.0001294
 -103.44  115.76 -153.69   0.0000856
 -102.63  105.66 -154.10   0.0001097
 -101.63   95.06 -154.59   0.0001058
 -100.74   84.68 -155.30   0.0001005
  -99.34   74.62 -156.28   0.0001016
  -98.59   65.33 -157.60   0.0000834
 -119.23   96.00  126.75   0.0002959
 -116.02   95.05  126.27   0.0003044
 -106.82   94.37  126.03   0.0003098
  -89.16   92.20  127.04   0.0003036
  -71.86   90.17  127.14   0.0003041
  -64.09   89.27  125.78   0.0002982
 -118.52   99.29  134.34   0.0009075
 -114.82   98.17  134.26   0.0008931
 -104.30   95.65  134.82   0.0009076
  -88.21   91.25  135.75   0.0008866
  -73.29   87.18  135.13   0.0008991
  -65.35   85.19  133.16   0.0009342
 -117.08  103.16  143.30   0.0012484
 -112.23  101.14  143.64   0.0013358
 -101.52   96.41  144.82   0.0012975
  -87.70   90.20  145.39   0.0012717
  -75.68   84.73  144.28   0.0013511
  -67.48   81.12  141.87   0.0012811
 -114.72  107.07  152.97   0.0012244
 -108.58  103.14  153.80   0.0011870
  -98.86   96.65  155.14   0.0012070
  -87.66   89.36  155.13   0.0012042
  -77.90   82.86  153.77   0.0011997
  -70.20   77.64  151.34   0.0012371
 -111.40  110.70  163.06   0.0008072
 -104.74  104.47  164.40   0.0007751
  -96.59   96.74  165.36   0.0007686
  -87.71   88.56  164.96   0.0007821
  -80.00   81.04  163.48   0.0007850
  -72.92   74.78  161.00   0.0008245
 -107.21  113.18  173.58   0.0004074
 -101.29  105.43  174.86   0.0004033
  -94.80   96.67  175.42   0.0004028
  -87.69   87.55  174.82   0.0004130
  -81.78   79.26  173.31   0.0004141
  -76.01   71.80  170.84   0.0004131
 -102.57  115.01 -175.60   0.0002107
  -98.10  106.18 -174.77   0.0002150
  -93.16   96.30 -174.52   0.0002121
  -88.25   86.57 -175.24   0.0002126
  -83.53   77.43 -176.81   0.0002275
  -79.35   69.17 -179.05   0.0002174
  -97.66  115.82 -164.53   0.0001353
  -94.79  106.18 -164.30   0.0001564
  -91.70   95.57 -164.52   0.0001680
  -88.48   85.16 -165.38   0.0001609
  -85.95   75.85 -166.72   0.0001633
  -83.40   66.97 -168.58   0.0001463
  -92.36  116.15 -153.31   0.0000944
  -91.63  106.14 -153.93   0.0001231
  -90.39   94.72 -154.53   0.0001229
  -89.35   84.16 -155.46   0.0001178
  -88.58   74.60 -156.51   0.0001157
  -87.47   65.43 -157.83   0.0000964
 -115.76   96.55  125.71   0.0002926
 -106.80   95.71  125.65   0.0003043
  -89.09   93.66  127.05   0.0003083
  -71.75   91.52  127.56   0.0002992
  -64.01   90.83  126.40   0.0003007
 -119.23   97.22 -173.90   0.0002942
 -114.50  100.87  133.11   0.0008741
 -104.06   98.69  134.09   0.0008681
  -87.80   94.52  135.83   0.0008870
  -73.14   90.66  136.01   0.0008694
  -64.70   88.44  134.41   0.0008742
 -118.31  102.03 -167.04   0.0008981
 -111.33  105.50  142.04   0.0011628
 -100.68  101.40  143.88   0.0012574
  -86.15   95.49  145.60   0.0012466
  101.16   98.49  -84.60   0.0012332
  110.44  102.30  -83.83   0.0012901
 -116.38  107.57 -158.79   0.0012001
 -106.90  109.35  151.99   0.0011145
  -96.97  103.40  154.25   0.0010911
   88.19   92.23  -95.12   0.0011393
   98.46   98.58  -94.90   0.0011558
  106.95  103.56  -94.10   0.0011276
  -62.07   80.17  151.42   0.0011368
 -101.88  112.29  162.67   0.0007282
   79.40   82.50 -103.53   0.0007059
   87.84   91.02 -105.02   0.0007312
   96.24   98.40 -105.23   0.0007527
  103.43  105.02 -104.51   0.0007431
   64.56   69.64  -37.76   0.0007478
   74.60   71.89 -110.68   0.0003746
   80.91   80.35 -113.25   0.0003786
   87.98   89.48 -114.92   0.0003918
   94.51   98.24 -115.36   0.0004063
  100.35  105.91 -114.97   0.0003958
  105.91  113.20 -113.94   0.0003782
   77.86   68.95 -120.63   0.0002000
   83.17   78.31 -123.20   0.0002147
   88.06   88.57 -124.77   0.0002142
   93.01   97.63 -125.47   0.0002148
   97.31  106.56 -125.37   0.0002260
  101.48  114.77 -124.77   0.0002130
   82.16   66.54 -131.16   0.0001319
   84.86   76.38 -133.07   0.0001566
   88.65   87.32 -134.67   0.0001706
   91.72   97.46 -135.45   0.0001557
   94.39  106.84 -135.69   0.0001616
   96.80  115.48 -135.78   0.0001469
   86.45   64.36 -141.88   0.0000881
   87.86   74.87 -143.33   0.0001120
   89.41   86.23 -144.57   0.0001262
   90.49   96.72 -145.45   0.0001088
   91.36  106.49 -146.11   0.0001071
   92.00  115.57 -146.78   0.0001009
 -106.83   97.07  125.06   0.0002932
  -89.04   95.22  126.85   0.0003044
  -71.57   93.08  127.79   0.0003038
  -63.78   92.35  126.77   0.0002962
  -59.71   92.35  125.80   0.0002968
 -115.77   97.78 -175.03   0.0002907
 -104.24  102.17  132.80   0.0008546
   89.60   91.46  -75.10   0.0008494
  104.88   94.33  -74.86   0.0008624
  113.74   96.17  -75.11   0.0008488
   59.69   84.01  -10.32   0.0008407
 -114.35  104.07 -168.53   0.0008635
   76.23   82.85  -82.69   0.0011053
   89.61   88.99  -84.47   0.0012153
  102.35   93.55  -84.75   0.0012067
  111.53   96.68  -84.88   0.0011800
  116.11   98.86  -85.19   0.0012128
   66.25   77.61  -19.63   0.0011194
   78.80   78.70  -91.63   0.0010370
   90.05   86.22  -94.03   0.0010409
  100.84   92.75  -94.74   0.0010957
  109.20   97.52  -94.84   0.0010803
  114.68  101.02  -95.15   0.0010294
   69.81   72.38  -28.36   0.0010303
   81.59   75.03 -100.97   0.0006629
   91.08   83.57 -103.71   0.0006660
  100.05   91.42 -104.77   0.0006889
  107.01   97.83 -105.03   0.0006847
  112.72  103.43 -105.03   0.0006547
   73.16   68.19  -37.31   0.0006597
   84.53   71.56 -110.65   0.0003459
   92.78   80.68 -113.54   0.0003522
   99.54   89.73 -114.86   0.0003600
  105.36   98.04 -115.06   0.0003608
  110.19  105.09 -115.07   0.0003413
   77.60   63.79  -46.98   0.0003329
   88.77   68.49 -120.98   0.0001853
   95.37   78.58 -123.65   0.0001990
  163.56   93.41   56.58   0.0001924
  103.75   97.61 -125.26   0.0001913
  107.49  106.06 -125.29   0.0002028
   82.72   59.88  -57.39   0.0001935
   93.33   66.11 -131.66   0.0001226
   97.56   76.67 -133.72   0.0001411
  100.52   87.42 -134.61   0.0001498
  102.99   97.34 -135.03   0.0001396
  105.04  106.54 -135.33   0.0001502
   89.21   57.01  -68.80   0.0001380
   98.20   64.48 -142.62   0.0000817
  100.19   75.10 -144.01   0.0000954
  101.11   86.31 -144.54   0.0001061
  101.74   96.75 -145.06   0.0000959
  102.17  106.47 -145.65   0.0000954
  102.19  115.54 -145.95   0.0000920
  -89.00   96.94  126.45   0.0002938
  -71.32   95.03  127.85   0.0002998
  -63.47   94.22  126.99   0.0002996
  -59.63   93.87  126.26   0.0002931
 -115.85   99.04 -175.95   0.0002939
 -107.49   98.33 -175.80   0.0002896
   89.93   88.73  -74.19   0.0008450
  105.00   91.14  -74.68   0.0008307
  114.04   92.83  -75.44   0.0008374
  118.08   94.38  -76.01   0.0008211
   64.39   81.19   -9.79   0.0008127
   74.36   84.05  -12.54   0.0008407
   90.58   84.29  -83.02   0.0010829
  103.66   88.97  -84.25   0.0011889
  112.86   92.28  -85.04   0.0011596
  117.23   94.08  -85.79   0.0011160
   66.97   73.80  -16.60   0.0011397
   76.75   77.90  -20.15   0.0010703
  147.77  113.20   94.84   0.0009985
  159.74  118.18   99.63   0.0010083
  111.86   91.76  -94.81   0.0010357
  116.82   95.03  -95.56   0.0009868
   70.49   67.09  -24.26   0.0009380
   10.29   57.39 -175.76   0.0009687
  161.98   67.42   54.22   0.0006148
  167.77   72.55   61.26   0.0006143
  110.98   90.66 -104.79   0.0006160
  116.25   95.83 -105.39   0.0005906
   75.05   61.18  -32.86   0.0005748
   83.41   67.35  -37.43   0.0005963
  164.52   74.69   47.05   0.0003009
  169.56   80.07   53.88   0.0002993
  110.31   89.60 -114.79   0.0003011
  115.41   96.66 -115.25   0.0002990
   81.14   55.78  -42.72   0.0002892
   88.52   62.68  -47.46   0.0002891
  165.99   82.23   40.56   0.0001551
  170.12   88.00   47.92   0.0001624
  110.32   88.47 -124.71   0.0001523
  114.22   97.10 -125.21   0.0001583
  117.82  104.09 -126.12   0.0001732
   94.31   58.79  -58.24   0.0001678
  104.31   66.19 -132.00   0.0001054
  169.87   95.91   42.16   0.0001186
  110.53   87.27 -134.65   0.0001207
  113.10   96.84 -135.25   0.0001197
  115.75  105.22 -135.59   0.0001371
  100.74   56.14  -69.68   0.0001234
  109.09   64.25 -142.89   0.0000658
  110.05   75.09 -143.80   0.0000824
  111.12   86.05 -144.57   0.0000831
  112.05   96.23 -145.24   0.0000754
  113.30  106.21 -145.59   0.0000905
  107.87   55.03  -81.66   0.0000805
  107.61   92.11  -65.74   0.0002910
  115.63   93.00  -66.58   0.0002963
   59.74   88.55   -2.63   0.0002951
 -115.99  100.44 -177.03   0.0002912
   71.88   89.47   -5.13   0.0002931
   89.85   91.41   -5.71   0.0002886
  105.50   88.27  -74.03   0.0008419
  114.56   89.92  -75.23   0.0008153
  118.48   91.24  -76.14   0.0008090
   64.71   79.06   -7.54   0.0008017
   74.40   81.65  -10.54   0.0007983
   90.21   85.94  -12.85   0.0008313
  105.09   84.42  -83.19   0.0010814
  114.37   88.02  -84.59   0.0011583
  118.38   89.59  -85.59   0.0010980
   66.79   70.97  -12.86   0.0010644
   76.44   73.96  -16.92   0.0011044
   91.25   79.24  -20.94   0.0010579
  105.60   80.27  -92.62   0.0009697
  115.04   86.06  -94.28   0.0009550
  118.88   88.82  -95.19   0.0009488
   69.74   62.87  -18.85   0.0009110
   79.22   66.44  -24.07   0.0008853
   93.04   72.89  -29.50   0.0009377
  106.86   76.17 -102.19   0.0005587
  115.96   84.47 -104.02   0.0005446
  119.68   88.45 -104.86   0.0005281
   73.73   55.32  -25.59   0.0005169
   81.94   58.37  -31.48   0.0005153
   95.45   66.95  -38.33   0.0005471
  108.69   72.22 -111.83   0.0002483
  116.89   83.00 -113.75   0.0002413
  120.64   88.71 -114.55   0.0002419
  122.92   92.48 -115.55   0.0002533
   85.77   51.65  -39.26   0.0002464
   98.53   61.32  -47.56   0.0002422
  110.64   67.66 -121.58   0.0001197
  117.79   81.52 -123.52   0.0001242
  121.47   89.97 -124.24   0.0001222
 -142.94   64.20   30.94   0.0001328
 -143.69   66.01   36.89   0.0001466
  100.87   54.23  -56.31   0.0001347
  112.32   60.57 -131.29   0.0000867
  118.87   79.92 -133.25   0.0000937
 -143.81   74.27   30.66   0.0000962
 -144.34   74.13   35.52   0.0001015
 -144.73   74.93   40.24   0.0001182
 -144.54   75.27   44.49   0.0001020
 -145.02   85.10   -5.24   0.0000576
 -144.07   85.21   11.60   0.0000661
 -144.60   84.51   32.02   0.0000651
 -145.21   84.39   39.62   0.0000617
 -145.41   84.64   44.37   0.0000793
 -145.40   84.81   48.35   0.0000725
  115.72   91.08  -66.42   0.0002893
   59.76   87.68   -1.22   0.0002931
   63.60   87.56   -2.28   0.0002923
   71.94   87.71   -4.01   0.0002915
   89.93   90.04   -4.93   0.0002937
  107.11   90.57   -5.30   0.0002871
  115.24   86.96  -74.62   0.0008370
  118.99   88.54  -75.70   0.0007945
   64.72   77.81   -5.05   0.0007892
   74.01   79.45   -8.14   0.0007959
  153.16   96.84  169.11   0.0007934
  106.00   85.73  -12.96   0.0008304
  115.92   83.81  -83.61   0.0010631
  119.47   85.48  -84.75   0.0011119
   66.02   68.68   -8.46   0.0010510
   74.88   70.20  -12.76   0.0010419
   91.37   75.00  -18.15   0.0010938
  106.76   80.26  -21.57   0.0010556
  117.72   81.10  -92.95   0.0009311
  120.78   83.16  -93.98   0.0008909
   67.78   60.05  -12.14   0.0008844
   75.17   61.27  -17.03   0.0008655
   92.10   66.75  -25.20   0.0008587
  109.04   75.38  -30.58   0.0009175
  120.34   79.41 -102.42   0.0004993
  122.70   81.71 -103.20   0.0004782
 -132.25   45.80   17.13   0.0004735
   75.35   52.44  -20.51   0.0004750
   91.30   58.29  -31.24   0.0004698
  112.37   71.86  -39.85   0.0004986
 -133.51   54.42   13.00   0.0002016
 -133.77   54.28   17.38   0.0002008
 -134.00   54.45   20.74   0.0002075
 -134.17   54.79   24.34   0.0002181
 -133.86   55.35   30.67   0.0002039
 -132.81   55.39   57.54   0.0001976
 -135.07   64.01   13.49   0.0000907
 -135.27   63.95   20.74   0.0000978
 -135.24   63.96   24.69   0.0001019
 -135.16   63.96   28.11   0.0001129
 -135.15   63.95   33.18   0.0001158
 -134.94   64.36   49.50   0.0001006
 -135.52   74.15    6.01   0.0000696
 -135.62   74.17   21.88   0.0000713
 -135.60   74.18   28.28   0.0000747
 -135.52   74.15   32.70   0.0000828
 -135.46   74.10   37.10   0.0000967
 -135.65   74.17   45.84   0.0000786
 -135.74   84.53   -0.87   0.0000410
 -135.64   84.41   17.11   0.0000429
 -135.73   84.50   30.35   0.0000422
 -135.69   84.50   37.26   0.0000423
 -135.64   84.42   42.45   0.0000537
 -135.66   84.38   48.11   0.0000489
  119.58   90.85  -66.64   0.0002876
   63.74   86.56   -1.03   0.0002915
   72.57   87.09   -2.93   0.0002933
   89.95   89.49   -4.00   0.0002939
  107.21   89.26   -4.67   0.0002925
  115.60   89.87   -5.93   0.0002847
  119.34   85.73  -74.83   0.0008252
   64.56   77.14   -2.40   0.0007774
   73.69   78.27   -5.58   0.0007802
   90.39   80.91   -9.02   0.0007991
  106.76   83.19  -11.56   0.0007959
  115.66   84.62  -13.53   0.0008232
  120.41   81.71  -83.32   0.0010468
   64.99   67.68   -3.79   0.0010767
   72.60   68.01   -7.81   0.0010274
   91.04   71.54  -14.68   0.0010418
  109.05   76.78  -19.57   0.0010964
  117.23   79.93  -22.05   0.0010494
  122.39   77.67  -92.02   0.0008940
   65.24   58.41   -4.72   0.0008472
   70.22   58.38   -8.31   0.0008480
   89.67   62.24  -19.39   0.0008352
  113.22   72.27  -28.37   0.0008408
  120.08   76.26  -30.96   0.0008967
 -123.43   44.85    5.56   0.0004598
 -123.68   45.02    8.60   0.0004406
 -123.84   45.25   12.13   0.0004374
 -123.46   46.01   21.24   0.0004323
 -122.69   45.48   54.04   0.0004239
 -123.20   44.85   62.17   0.0004579
 -124.83   54.10    8.64   0.0001731
 -124.76   54.15   11.92   0.0001751
 -124.67   54.17   15.36   0.0001827
 -124.78   54.08   22.18   0.0001815
 -124.65   54.23   47.75   0.0001638
 -124.84   54.11   63.84   0.0001616
 -125.22   64.16   10.24   0.0000751
 -125.15   64.18   15.21   0.0000822
 -125.06   64.19   19.51   0.0000882
 -125.08   64.14   25.74   0.0000936
 -125.19   64.18   40.59   0.0000903
 -125.08   64.17   61.54   0.0000786
 -125.72   74.17    9.83   0.0000571
 -125.73   74.21   18.08   0.0000581
 -125.65   74.10   23.90   0.0000636
 -125.65   74.05   29.62   0.0000699
 -125.91   74.14   38.82   0.0000768
 -125.72   74.22   54.73   0.0000656
 -126.71   84.60    4.06   0.0000136
 -126.45   84.31   18.04   0.0000144
 -126.46   84.41   27.37   0.0000146
 -126.53   84.02   34.41   0.0000156
 -126.67   84.04   41.36   0.0000204
 -126.92   84.37   51.07   0.0000171
   63.86   86.09    0.21   0.0002878
   72.57   86.58   -1.72   0.0002939
   89.97   88.71   -2.95   0.0002944
  107.30   88.22   -3.87   0.0002932
  115.70   88.69   -5.29   0.0002904
  119.65   89.60   -6.21   0.0002832
   64.19   76.63    0.46   0.0008153
   72.55   76.89   -2.62   0.0007710
   90.31   78.92   -6.65   0.0007774
  107.49   81.03   -9.82   0.0008075
  115.98   82.53  -12.05   0.0007927
  119.76   83.59  -13.57   0.0008107
   63.78   67.11    1.10   0.0010227
   70.14   66.94   -2.38   0.0010526
   90.46   68.91  -10.65   0.0010197
  111.10   74.01  -17.27   0.0010533
  118.04   76.64  -19.85   0.0011038
  121.04   77.82  -21.31   0.0010417
 -113.40   36.59   -3.02   0.0008561
 -113.80   37.04    0.91   0.0008104
   86.62   59.23  -12.53   0.0008193
 -111.43   36.85   45.04   0.0008223
 -111.74   36.24   49.88   0.0008373
 -112.35   36.26   53.05   0.0008713
 -114.36   44.68   -0.87   0.0004303
 -114.30   44.70    2.65   0.0004069
 -114.32   45.03   13.94   0.0004002
 -114.14   44.82   45.51   0.0003896
 -114.33   44.60   53.05   0.0003954
 -114.36   44.61   56.33   0.0004315
 -114.76   54.44    1.82   0.0001597
 -114.69   54.45    6.13   0.0001574
 -114.82   54.35   14.71   0.0001587
 -114.72   54.44   39.12   0.0001489
 -114.83   54.38   52.76   0.0001398
 -114.81   54.39   58.00   0.0001462
 -115.41   64.00    4.71   0.0000736
 -115.36   63.94    9.92   0.0000791
 -115.55   63.90   17.85   0.0000824
 -115.60   64.07   33.43   0.0000830
 -115.39   63.96   50.73   0.0000800
 -115.56   64.08   59.35   0.0000735
 -179.74   89.65 -163.12   0.0000561
  174.78   42.08 -124.27   0.0000569
  173.94   48.91 -120.88   0.0000617
  173.94   58.03 -117.45   0.0000678
  175.39   70.06 -112.55   0.0000725
  177.73   81.06 -107.20   0.0000618
  -84.08  115.72   33.79   0.0000089
   91.44   68.54   18.71   0.0000099
 -179.38   55.86 -130.27   0.0000100
 -103.26  124.61   62.17   0.0000110
  -96.76  123.18   73.11   0.0000139
  -90.19  120.27   83.76   0.0000109
   72.56   86.40   -0.50   0.0002914
   89.97   87.56   -1.80   0.0002949
  107.37   87.41   -2.92   0.0002924
  115.97   87.40   -4.57   0.0002928
  119.74   88.58   -5.55   0.0002890
   63.94   86.01   61.42   0.0002831
   72.18   76.82    0.15   0.0008110
   90.18   77.90   -4.07   0.0007712
  108.20   79.23   -7.83   0.0007795
  116.33   80.39  -10.29   0.0008115
  119.98   81.37  -12.01   0.0007845
   63.94   76.97   63.17   0.0007954
   68.47   67.06    2.64   0.0010054
   90.10   67.24   -6.44   0.0010474
  112.88   71.57  -14.75   0.0010275
  118.50   73.64  -17.09   0.0010717
  121.51   74.70  -18.81   0.0011008
   62.74   67.61   65.75   0.0010191
 -104.51   36.46   -8.65   0.0008207
 -103.76   37.48    8.83   0.0007874
 -103.04   36.39   36.77   0.0008074
 -103.25   36.09   41.33   0.0008266
 -103.74   36.10   44.38   0.0008317
 -104.27   36.24   47.49   0.0008439
 -104.54   44.80   -6.84   0.0004023
 -104.64   44.80    8.16   0.0003746
 -104.64   44.79   36.17   0.0003664
 -104.63   44.74   42.66   0.0003692
 -104.62   44.76   45.98   0.0003860
 -104.62   44.81   49.00   0.0004117
 -104.82   54.55   -3.39   0.0001496
 -104.98   54.50    8.27   0.0001395
 -104.80   54.53   31.60   0.0001374
 -104.93   54.53   41.81   0.0001330
 -104.89   54.54   46.94   0.0001326
 -104.87   54.57   51.18   0.0001446
 -105.78   63.13   -0.02   0.0000756
 -106.35   63.12    9.51   0.0000773
 -106.02   63.43   27.01   0.0000768
 -106.09   63.45   40.43   0.0000770
 -106.36   63.72   48.72   0.0000772
 -105.79   63.31   53.69   0.0000760
  -46.78   27.36  143.59   0.0000572
 -176.07   41.02 -125.73   0.0000588
 -176.58   50.64 -123.00   0.0000633
  -95.33  118.03   59.33   0.0000695
   83.29   69.02  111.69   0.0000715
   89.73   71.01  101.67   0.0000640
   98.28   65.05   28.65   0.0000080
  110.09  100.78   72.31   0.0000090
  108.70  106.47   63.11   0.0000095
  106.56  111.60   53.80   0.0000104
   86.05   59.43  110.56   0.0000126
   92.56   61.64   99.17   0.0000100
   89.95   87.31   -0.60   0.0002935
  107.42   86.84   -1.85   0.0002935
  116.05   86.66   -3.61   0.0002922
  119.85   87.78   -4.70   0.0002933
   64.01   86.25   62.57   0.0002891
   71.98   86.12   60.81   0.0002851
   90.04   77.06   -1.37   0.0008152
  108.85   77.79   -5.65   0.0007755
  116.38   78.90   -8.15   0.0007857
  120.21   79.82  -10.08   0.0008092
   63.75   77.74   65.78   0.0007739
   71.34   76.93   63.06   0.0007859
   90.14   66.71   -2.21   0.0010047
  112.90   69.69  -11.15   0.0010610
  118.57   70.99  -13.84   0.0010476
  121.67   71.99  -15.89   0.0010809
   61.99   69.05   70.01   0.0010781
   67.12   67.86   67.40   0.0009905
  -94.61   37.15    3.23   0.0007994
  -94.09   36.21   27.81   0.0007837
  -94.26   36.03   32.04   0.0008175
  -94.64   36.01   34.94   0.0008370
  -95.02   36.08   37.83   0.0008090
  -95.17   36.23   41.85   0.0008114
  -94.89   44.90    3.00   0.0003738
  -94.93   44.91   26.45   0.0003516
  -94.87   44.89   32.07   0.0003557
  -94.88   44.90   35.37   0.0003719
  -94.89   44.93   38.60   0.0003773
  -94.81   44.91   43.55   0.0003903
  -95.08   54.48    2.91   0.0001384
  -94.94   54.40   22.85   0.0001255
  -95.05   54.45   30.94   0.0001283
  -95.01   54.47   35.69   0.0001319
  -94.98   54.48   40.22   0.0001344
  -94.95   54.44   46.88   0.0001429
  179.86   29.24 -112.64   0.0000790
   -2.16    9.67  113.87   0.0000783
 -172.25   52.63 -105.30   0.0000790
  169.16    5.78  -51.92   0.0000830
  173.01   10.80  -53.02   0.0000847
  176.23   18.48  -53.61   0.0000837
 -161.86   33.14 -135.30   0.0000550
 -163.14   43.87 -130.43   0.0000590
   80.12   66.39  132.79   0.0000623
   87.34   66.32  122.24   0.0000657
 -161.72   70.96 -115.39   0.0000675
 -157.68   24.06  -81.31   0.0000618
 -147.56   39.73 -150.39   0.0000067
   73.68   58.21  146.73   0.0000079
   81.21   56.58  134.40   0.0000080
   88.48   56.95  122.23   0.0000085
   95.73   58.17  110.34   0.0000100
  102.06   60.44   99.10   0.0000079
  108.04   86.11   -0.80   0.0002929
  116.30   85.79   -2.64   0.0002935
  119.94   87.01   -3.79   0.0002910
   63.91   86.39   63.74   0.0002944
   71.96   86.49   61.97   0.0002917
   89.93   87.32   60.62   0.0002861
  108.79   76.98   -3.09   0.0008199
  116.48   77.40   -5.86   0.0007812
  120.35   78.60   -7.90   0.0007831
   63.52   78.55   68.29   0.0008019
   71.16   77.78   65.64   0.0007682
   89.89   77.07   61.38   0.0007833
  113.12   67.95   -7.47   0.0010138
  118.15   69.08  -10.02   0.0010863
  121.58   69.99  -12.41   0.0010592
   61.55   70.99   73.86   0.0010626
   66.66   69.45   71.45   0.0010481
   90.33   66.48   62.00   0.0009796
  -84.85   36.23   18.46   0.0008025
  -85.03   36.08   22.41   0.0008109
  -85.42   36.02   25.30   0.0008377
  -85.78   36.05   28.19   0.0008227
  -85.93   36.23   32.53   0.0007701
  -85.36   37.16   57.73   0.0007856
  -85.22   44.93   16.72   0.0003668
  -85.16   44.93   21.53   0.0003587
  -85.17   44.92   24.73   0.0003718
  -85.17   44.92   28.07   0.0003734
  -85.11   44.92   33.84   0.0003582
  -85.16   44.92   57.96   0.0003685
  -85.08   54.45   13.25   0.0001359
  -85.08   54.49   19.88   0.0001268
  -85.07   54.50   24.36   0.0001344
  -85.01   54.50   29.22   0.0001425
  -85.08   54.44   37.34   0.0001401
  -84.96   54.49   57.82   0.0001421
    3.61   18.38  113.62   0.0000827
    6.77   10.59  113.17   0.0000831
   11.22    5.64  111.42   0.0000865
  144.97    1.15  -19.96   0.0000931
 -178.14    9.80  -53.73   0.0000961
    0.09   28.91  172.56   0.0000900
  -22.89   23.94  141.71   0.0000578
  -33.93   16.69  154.73   0.0000641
   92.38   67.68  -61.89   0.0000678
   99.36   66.43  -72.44   0.0000728
  -16.51   43.91 -171.15   0.0000741
  -18.73   33.03 -164.32   0.0000658
   77.82   60.47  -39.12   0.0000072
   84.59   57.86  -50.49   0.0000090
   91.86   56.72  -62.44   0.0000087
   99.54   56.41  -74.79   0.0000095
  106.80   58.22  -86.92   0.0000105
   61.22   93.70  -19.90   0.0000080
  116.53   85.13   -1.59   0.0002933
  120.06   86.53   -2.78   0.0002923
   63.85   86.73   64.76   0.0002904
   71.96   87.10   63.03   0.0002972
   89.88   86.99   61.81   0.0002924
  108.07   86.01   60.40   0.0002851
  116.47   76.22   -3.39   0.0008290
  120.48   77.49   -5.77   0.0007837
   63.43   79.63   70.51   0.0007736
   71.10   79.03   68.02   0.0007961
   89.76   77.21   64.07   0.0007642
  108.61   76.59   59.60   0.0007832
  117.43   67.67   -5.78   0.0010384
  121.21   68.72   -8.36   0.0011010
   61.47   73.33   77.20   0.0010430
   66.54   71.43   75.08   0.0010289
   90.81   66.05   66.04   0.0010221
  112.41   66.89   56.88   0.0009831
  -75.79   36.26   12.79   0.0008442
  -76.33   36.14   15.88   0.0008301
  -76.78   36.13   18.90   0.0008206
  -76.98   36.42   23.57   0.0007810
  -76.20   37.49   52.00   0.0007425
  -75.51   36.48   68.96   0.0007951
  -75.44   44.84   11.16   0.0003940
  -75.44   44.80   14.17   0.0003821
  -75.43   44.79   17.53   0.0003801
  -75.41   44.83   24.21   0.0003583
  -75.42   44.86   52.67   0.0003459
  -75.50   44.84   67.12   0.0003722
  -75.22   54.62    8.95   0.0001422
  -75.20   54.60   13.17   0.0001379
  -75.15   54.60   18.38   0.0001474
  -75.26   54.59   28.78   0.0001518
  -75.11   54.55   52.26   0.0001462
  -75.25   54.61   63.67   0.0001494
  -74.34   63.34    6.48   0.0000890
  -73.83   63.73   11.49   0.0000916
  -73.97   63.53   19.54   0.0000994
  -74.13   63.47   33.03   0.0001076
  -73.76   63.17   50.71   0.0001068
  -74.36   63.18   60.31   0.0000972
   89.95   71.07  -41.51   0.0000692
   96.41   68.93  -51.29   0.0000786
   -4.75   61.79  179.06   0.0000838
   -3.48   50.57 -177.43   0.0000888
   -4.04   40.87 -174.29   0.0000906
   -6.43   33.02 -169.63   0.0000773
   86.47   60.23  -38.62   0.0000156
   93.20   58.17  -50.15   0.0000189
 -115.65   72.48   57.39   0.0000185
   71.68  105.75   -3.07   0.0000207
   77.35   68.62   41.42   0.0000229
   81.48   63.71   31.80   0.0000186
  120.20   86.41   -1.65   0.0002923
   63.83   87.29   65.61   0.0002922
   71.97   87.95   63.97   0.0002923
   89.85   87.55   62.95   0.0002979
  108.11   86.19   61.63   0.0002909
  116.75   84.76   59.51   0.0002855
   60.56   82.14   74.07   0.0008319
   63.42   80.40   72.40   0.0007731
   71.77   80.87   69.96   0.0007644
   89.61   78.57   66.65   0.0007910
  108.36   76.64   62.35   0.0007623
  116.43   74.83   59.10   0.0007892
   59.04   77.56   81.49   0.0010564
   61.75   75.98   79.99   0.0010793
   66.14   73.50   78.50   0.0010032
   90.98   66.22   70.05   0.0010026
  112.00   65.93   61.07   0.0010256
  116.51   66.83   58.74   0.0010085
  -67.66   36.31    7.16   0.0008690
  -68.25   36.29   10.32   0.0008081
  -68.56   36.84   15.24   0.0007775
   94.08   59.19   72.15   0.0007534
  -66.22   37.04   59.41   0.0007596
  -66.68   36.62   63.37   0.0008484
  -65.74   44.70    3.92   0.0004174
  -65.77   44.70    7.24   0.0003778
  -65.93   44.89   14.94   0.0003606
  -65.74   45.13   46.63   0.0003505
  -65.77   44.79   57.65   0.0003603
  -65.73   44.76   61.11   0.0004041
  -65.28   54.46    2.19   0.0001456
  -65.25   54.46    7.45   0.0001414
  -65.36   54.51   21.10   0.0001494
  -65.27   54.43   45.66   0.0001553
  -65.39   54.52   54.18   0.0001549
  -65.32   54.50   58.39   0.0001558
  -64.57   64.19    0.85   0.0000879
  -64.66   64.10    9.30   0.0000967
  -64.52   64.16   26.57   0.0001048
  -64.55   63.99   42.26   0.0001102
  -64.75   64.03   50.34   0.0001074
  -64.72   64.09   55.48   0.0000943
    2.13   81.18  167.23   0.0000720
    4.46   70.32  172.39   0.0000843
    5.99   58.00  177.42   0.0000915
    5.97   48.82 -179.08   0.0000947
    4.90   42.07 -175.04   0.0000905
   -0.38   89.72 -136.79   0.0000767
  -90.30  120.78  -24.21   0.0000379
  -83.42  123.40  -13.21   0.0000478
    1.39   64.09 -173.73   0.0000479
   -5.39  110.66 -134.70   0.0000522
   88.64   68.05   41.58   0.0000565
   94.32   64.16   31.27   0.0000476
   63.83   87.69   66.28   0.0002929
   71.31   88.75   64.88   0.0002938
   89.84   88.40   63.99   0.0002916
  108.16   86.68   62.84   0.0002974
  117.01   84.39   60.55   0.0002913
  120.36   86.78   59.57   0.0002843
   63.67   81.89   73.85   0.0008260
   71.95   82.83   71.75   0.0007633
   89.51   80.03   69.01   0.0007562
  107.52   77.57   65.26   0.0007900
  116.21   74.35   61.71   0.0007683
   61.32   83.58  135.13   0.0007922
   62.24   78.41   82.23   0.0010384
   66.05   75.82   81.33   0.0010369
   89.21   71.13   74.55   0.0009721
  111.31   65.39   65.35   0.0010130
  115.52   66.15   63.26   0.0010554
   60.21   79.39  143.21   0.0010232
   59.99   75.98   90.96   0.0008510
   64.23   72.65   89.47   0.0007652
   94.39   59.58   77.22   0.0007510
  110.59   58.14   67.74   0.0007818
  115.11   58.42   64.48   0.0008119
   57.79   77.67  152.08   0.0008780
  -56.90   44.95   -1.84   0.0004157
  -57.33   45.51    6.24   0.0003634
  -56.54   46.07   39.09   0.0003581
  -56.25   45.34   48.22   0.0003821
  -56.44   45.12   51.75   0.0004060
  -56.69   44.95   54.77   0.0004321
  -55.26   54.21   -3.57   0.0001456
  -55.48   54.36   12.24   0.0001434
  -55.31   54.18   38.05   0.0001567
  -55.42   54.26   44.96   0.0001675
  -55.33   54.24   48.37   0.0001677
  -55.27   54.19   51.64   0.0001608
  -55.01   64.26   -1.53   0.0000787
  -54.92   64.27   19.15   0.0000922
  -55.01   64.23   34.41   0.0001012
  -55.04   64.28   40.77   0.0001033
  -54.96   64.27   45.05   0.0000972
  -54.90   64.26   49.97   0.0000830
  -54.44   74.29    4.83   0.0000604
  -54.22   74.23   21.09   0.0000732
  -54.47   74.14   30.52   0.0000783
  -54.48   74.19   36.31   0.0000768
  -54.41   74.28   42.03   0.0000715
  -54.41   74.26   50.20   0.0000611
  -53.20   84.43    8.77   0.0000314
  -53.43   84.10   18.57   0.0000417
  -53.58   84.10   25.59   0.0000412
  -53.64   84.52   32.51   0.0000433
  -53.65   84.38   41.95   0.0000500
  -53.42   84.65   55.68   0.0000411
   71.36   90.18   65.46   0.0002952
   89.87   89.61   64.92   0.0002926
  108.94   87.24   63.89   0.0002889
  117.40   86.40   61.76   0.0002978
  120.35   88.25   61.31   0.0002899
   63.86   89.45  126.63   0.0002846
   72.21   85.11   73.17   0.0008142
   89.50   82.49   71.10   0.0007586
  107.30   78.64   67.82   0.0007562
  115.97   74.30   64.29   0.0007965
  -62.33   18.89   64.55   0.0007724
  -65.92   19.40   70.07   0.0007884
  -59.35   29.62    6.40   0.0010002
   88.82   74.17   78.03   0.0010172
  -51.98   32.05   44.32   0.0009813
  -50.36   30.97   46.07   0.0010414
  -57.36   27.76   59.25   0.0010757
  -58.69   28.15   62.40   0.0010037
  -54.09   38.18    1.37   0.0008098
  -52.46   41.00   29.78   0.0007484
  -49.29   39.66   41.10   0.0007819
  -48.69   38.62   44.02   0.0008425
  -52.71   36.41   53.33   0.0008444
  -53.36   36.70   56.09   0.0008618
  -50.08   46.62   -1.47   0.0004117
  -48.67   48.07   30.15   0.0003754
  -47.22   46.91   38.54   0.0004029
  -47.85   45.84   43.28   0.0004459
  -48.94   45.21   47.70   0.0004488
  -49.34   45.39   50.89   0.0004408
  -47.22   55.40    2.11   0.0001562
  -46.16   55.43   29.51   0.0001607
  -45.95   54.91   35.99   0.0001853
  -46.14   54.58   39.62   0.0001980
  -46.36   54.40   42.97   0.0001879
  -46.59   54.50   47.30   0.0001716
  -45.22   64.51   10.01   0.0000799
  -44.97   64.12   26.89   0.0000929
  -44.98   64.10   32.15   0.0001018
  -44.92   64.09   35.62   0.0001011
  -44.90   64.07   39.55   0.0000953
  -45.08   64.13   46.60   0.0000794
  -44.46   74.26   13.98   0.0000398
  -44.64   74.19   23.02   0.0000491
  -44.59   74.24   27.50   0.0000513
  -44.51   74.27   31.84   0.0000495
  -44.48   74.26   38.15   0.0000449
  -44.60   74.23   53.37   0.0000388
  -44.45   84.46   11.78   0.0000030
  -44.47   84.50   17.63   0.0000040
  -44.43   84.57   22.70   0.0000038
  -44.38   84.57   29.54   0.0000043
  -44.48   84.47   42.36   0.0000049
  -44.38   84.61   60.76   0.0000039
   89.84   90.95   65.67   0.0002938
  -12.52    4.23    7.24   0.0002894
  -17.59    4.21   14.94   0.0002888
  -22.06    5.06   21.91   0.0002971
  -21.77    6.61   25.48   0.0002905
  -53.86    8.03   59.93   0.0002871
   89.57   84.88   72.83   0.0008099
  106.73   80.76   70.30   0.0007603
  -45.67   21.66   42.21   0.0007604
  -54.18   17.83   56.60   0.0007951
  -58.32   18.34   62.62   0.0007716
   73.12   87.95  134.09   0.0007816
   88.68   78.43   80.90   0.0009870
  105.21   72.57   76.36   0.0010287
  -42.91   31.32   38.54   0.0010018
  -49.93   27.08   52.32   0.0010548
  -51.41   27.50   55.51   0.0010624
   73.25   84.17  143.30   0.0009755
   87.33   71.93   89.31   0.0007998
  -42.26   41.20   32.99   0.0007750
  -40.69   40.13   35.31   0.0008447
  -45.79   36.17   47.20   0.0008801
  -46.60   36.65   49.92   0.0008332
   72.92   80.41  152.69   0.0008333
   85.61   65.60   97.89   0.0004289
  -39.79   49.48   29.48   0.0004205
  -39.01   48.17   32.88   0.0004727
  -42.40   45.32   42.22   0.0004936
  -43.02   45.89   45.21   0.0004549
   71.77   76.70  162.25   0.0004401
  -39.85   58.82   17.96   0.0001848
  -37.75   57.59   26.40   0.0002024
  -38.58   55.11   33.08   0.0002355
  -39.66   54.63   37.43   0.0002359
  -40.33   55.34   41.41   0.0002097
  -41.67   57.43   53.22   0.0001894
  -37.19   66.68   17.50   0.0000965
  -36.31   66.00   23.35   0.0001145
  -37.03   64.34   29.19   0.0001218
  -37.53   64.26   32.92   0.0001178
  -38.36   65.04   38.81   0.0001092
  -39.09   66.87   58.16   0.0000939
  -35.49   75.35   15.48   0.0000470
  -35.34   75.01   19.88   0.0000583
  -35.69   74.26   24.56   0.0000596
  -36.09   74.28   29.26   0.0000559
  -37.02   74.93   39.47   0.0000535
  -36.77   76.13   64.22   0.0000460
  -34.67   84.88   11.64   0.0000020
  -34.66   84.73   15.62   0.0000032
  -34.82   84.48   20.26   0.0000027
  -35.31   84.53   27.52   0.0000027
  -35.84   85.16   47.66   0.0000032
  -35.01   85.13   65.13   0.0000023
   24.95    4.63  -30.28   0.0002901
   10.95    4.22  -13.63   0.0002881
   -0.31    4.99   -0.07   0.0002886
    2.92    7.60    1.31   0.0002979
   10.77    8.01   -3.93   0.0002934
  -91.25   96.62  -66.54   0.0002887
  107.33   82.50   72.21   0.0008059
  -37.46   20.30   34.46   0.0007601
  -42.12   16.17   44.44   0.0007610
  -49.10   16.98   53.53   0.0007931
   72.88   90.66  134.73   0.0007762
   89.75   87.73  134.15   0.0007852
  104.36   76.82   79.87   0.0009946
  -35.41   31.14   31.24   0.0010414
  -41.51   26.05   44.44   0.0010148
  -43.45   26.47   48.01   0.0010392
   74.69   88.52  144.28   0.0010509
   89.15   83.28  143.00   0.0009758
  101.14   70.76   88.15   0.0008349
  -33.37   41.13   27.74   0.0008272
  -38.38   35.52   40.69   0.0008819
   67.17   91.55  154.91   0.0008720
   75.64   86.18  154.03   0.0008123
   87.75   78.31  152.24   0.0008313
   96.89   65.50   97.33   0.0004782
  -31.72   50.71   24.32   0.0004838
  -35.86   45.05   36.84   0.0005194
   67.70   91.06  164.78   0.0004997
   75.56   83.31  163.97   0.0004520
   85.59   74.30  161.79   0.0004607
   91.80   60.82  107.36   0.0002263
  -30.35   59.79   21.14   0.0002521
  -33.94   54.64   32.94   0.0002750
   68.45   89.83  174.72   0.0002534
   75.01   80.81  173.87   0.0002223
   82.79   70.80  171.52   0.0002190
   85.99   57.17  118.13   0.0001264
  -30.12   65.49   22.53   0.0001511
   64.84   97.00 -174.83   0.0001505
   69.16   88.43 -175.20   0.0001439
   73.85   78.38 -176.23   0.0001339
   79.34   67.93 -178.37   0.0001193
  -29.54   78.98   10.37   0.0000770
  -30.33   73.54   20.84   0.0000996
   66.08   97.15 -164.83   0.0001009
   69.03   87.00 -165.21   0.0000993
   71.90   76.32 -166.21   0.0000973
   75.25   65.73 -167.85   0.0000768
  -28.56   87.81    7.21   0.0000363
  -29.96   83.18   16.70   0.0000496
   67.38   96.35 -154.77   0.0000478
   68.53   85.84 -155.31   0.0000524
   69.62   74.95 -156.10   0.0000574
   70.65   64.00 -156.99   0.0000396
   28.39    4.98  -31.01   0.0002884
   16.82    5.41  -17.32   0.0002879
   14.47    8.53  -10.00   0.0002912
   21.56    9.07  -14.55   0.0003011
  -91.23   95.05  -66.94   0.0002955
   38.53    5.76   16.18   0.0002876
   -2.10   12.60    0.22   0.0008031
   -7.30   12.90    7.38   0.0007611
  -30.29   14.95   34.65   0.0007685
  -38.49   16.21   45.33   0.0007986
  -92.97   98.55  -75.58   0.0007838
  -74.07  102.55  -72.36   0.0007868
  -26.11   29.51   22.86   0.0010032
  -29.51   24.46   32.82   0.0010476
  -33.52   25.02   38.59   0.0010169
   75.76   93.19  144.62   0.0010408
   89.94   88.13  144.40   0.0010636
  104.79   81.07  142.45   0.0009902
  110.92   71.00   87.84   0.0008818
  -29.26   34.36   32.60   0.0008558
   69.75   97.17  154.86   0.0008813
   77.85   92.15  154.71   0.0008688
   89.42   85.29  154.03   0.0008386
  101.73   77.40  151.53   0.0008775
  106.51   66.49   97.27   0.0005317
   67.14  101.91  165.22   0.0005240
   71.73   97.69  164.89   0.0005285
   79.29   91.07  164.83   0.0005007
   88.38   82.63  163.80   0.0004774
   98.23   73.87  161.04   0.0005124
  101.62   62.80  107.24   0.0002602
   69.32  104.32  175.14   0.0002790
   73.93   97.71  175.11   0.0002809
   79.97   89.71  174.89   0.0002591
   86.87   80.33  173.60   0.0002426
   94.53   70.91  170.92   0.0002487
   95.51   59.48  118.13   0.0001452
   71.92  105.51 -174.69   0.0001687
   75.77   97.32 -174.69   0.0001626
   80.13   88.11 -175.16   0.0001516
   84.95   78.10 -176.44   0.0001438
   90.20   68.24 -178.66   0.0001346
   89.62   57.09  129.16   0.0000953
   74.88  106.09 -164.37   0.0001190
   77.33   96.91 -164.65   0.0001233
   79.78   86.81 -165.24   0.0001247
   82.69   76.40 -166.36   0.0001169
   85.84   66.18 -168.04   0.0000924
   82.98   55.65  140.69   0.0000646
   77.58  105.95 -154.09   0.0000909
   78.39   96.13 -154.65   0.0000889
   79.26   85.94 -155.37   0.0000984
   80.14   75.15 -156.18   0.0001018
   81.28   64.81 -157.24   0.0000670
   29.59    6.06  -30.12   0.0002874
   22.70    9.28  -18.13   0.0002901
   28.77    9.88  -21.70   0.0002957
  -91.22   93.28  -67.15   0.0003038
   46.55    6.83    8.21   0.0002947
   39.55    5.87   17.92   0.0002859
   11.11   13.11  -11.11   0.0008049
    9.30   16.89   -3.53   0.0007731
   13.60   17.59   -5.03   0.0007876
  -92.36   94.11  -75.90   0.0008099
  -74.51   98.69  -73.81   0.0007844
   14.76   13.06   43.62   0.0007880
    5.68   21.86   -4.87   0.0010085
    1.69   25.10    4.70   0.0010617
 -107.70   88.83  -85.33   0.0010409
  -93.59   95.02  -85.65   0.0010636
  -78.02  101.52  -83.50   0.0010831
    8.37   21.98   50.81   0.0009926
    3.46   31.16   -1.87   0.0008974
  -17.78   33.22   23.98   0.0008652
   79.92   98.83  154.56   0.0008936
  -95.10   96.02  -95.62   0.0009100
  -81.85  103.66  -93.79   0.0008815
  -71.59  109.76  -91.40   0.0009129
   70.24  110.53  163.76   0.0005543
   75.47  104.83  164.35   0.0005322
   82.80   98.42  165.06   0.0005357
   91.85   90.78  165.04   0.0005311
  -86.20  105.21 -104.51   0.0005272
  -76.94  112.83 -102.07   0.0005533
   73.94  112.81  174.07   0.0002742
   78.91  105.77  174.79   0.0002785
   85.19   98.34  175.37   0.0002796
   91.88   89.43  174.96   0.0002712
  -89.86  105.85 -115.13   0.0002618
  -82.91  114.73 -113.45   0.0002667
   78.29  114.52 -175.25   0.0001438
   82.09  106.26 -174.72   0.0001600
   86.62   97.50 -174.51   0.0001494
   91.73   88.32 -175.17   0.0001408
   96.47   78.19 -176.71   0.0001403
  101.44   68.81 -179.11   0.0001334
  100.29   57.91  128.72   0.0000903
   85.34  106.49 -164.25   0.0001151
   88.23   97.15 -164.47   0.0001115
   91.10   86.99 -165.27   0.0001119
   94.36   76.50 -166.73   0.0001076
   97.31   66.52 -168.64   0.0000829
   93.95   55.84  140.44   0.0000709
   88.16  106.10 -153.91   0.0000980
   89.33   96.32 -154.51   0.0000983
   90.59   86.31 -155.39   0.0001044
   91.44   75.15 -156.47   0.0001018
   92.39   64.93 -157.69   0.0000683
