TEXTURE AT STRAIN =    0.2000
   1.092   1.103   0.829  <-- length of average ellipsoid axes for phase
    2.98    0.00    0.00  <-- Euler angles of average ellipsoid axes for phase
B      1944
   -3.46   14.52   13.39   0.0002897
   -0.91   14.86   20.89   0.0002948
    1.90   14.78   28.13   0.0002988
    3.10   14.23   36.92   0.0003027
   -0.22   13.62   50.17   0.0002926
   -3.99   13.90   63.89   0.0002868
   -0.17   22.94   10.03   0.0008200
    1.40   23.45   18.69   0.0008031
    3.46   23.46   26.80   0.0008091
    5.08   23.17   35.13   0.0008152
    4.97   22.48   45.08   0.0007836
    1.17   22.15   58.69   0.0007982
    0.70   31.81   12.07   0.0010277
    2.80   32.09   20.97   0.0011066
    4.43   32.21   28.58   0.0010815
    5.30   31.87   34.29   0.0010887
    6.46   31.49   40.59   0.0010928
    6.41   30.60   51.02   0.0010036
    3.10   38.95   13.91   0.0009159
    4.44   38.78   23.82   0.0008998
    4.89   38.81   29.37   0.0009410
    5.10   38.72   33.21   0.0009508
    5.27   38.52   37.74   0.0009064
    5.91   38.33   46.54   0.0009199
    4.83   46.31   15.09   0.0005697
    5.12   46.26   26.46   0.0005513
    5.05   46.22   29.57   0.0005712
    4.96   46.24   32.09   0.0005717
    4.89   46.27   34.97   0.0005550
    5.03   46.28   42.78   0.0005698
    4.78   55.71   20.49   0.0002754
    5.03   56.26   27.78   0.0002823
    5.02   56.28   29.48   0.0002919
    4.99   56.29   30.96   0.0002861
    4.97   56.27   32.65   0.0002739
    5.06   55.81   38.17   0.0002721
   24.91  156.60 -161.26   0.0001311
   50.89  149.97 -139.64   0.0001436
   59.01  145.87 -135.15   0.0001331
  -48.55  146.39 -166.74   0.0001306
  -39.90  150.63 -160.40   0.0001304
  -15.40  156.30 -139.12   0.0001227
   36.48  166.77 -149.07   0.0000733
   64.59  158.40 -122.72   0.0000899
   74.32  151.98 -115.29   0.0000859
  -63.68  151.93  176.15   0.0000875
  -53.79  158.25 -176.27   0.0000848
  -25.28  166.53 -149.67   0.0000659
   90.64  173.11  -94.42   0.0000682
   94.85  161.71  -91.02   0.0000808
   93.70  153.90  -93.77   0.0000872
  -83.04  153.91  154.67   0.0000937
  -83.01  161.80  152.92   0.0000782
  -89.68  173.35  145.40   0.0000580
    7.11   14.22   12.82   0.0002940
    9.25   14.50   20.71   0.0002990
   11.57   14.41   28.42   0.0002988
   12.26   13.93   37.73   0.0002997
    9.49   13.49   50.46   0.0002938
    6.69   13.72   63.22   0.0002902
   10.37   22.69    9.56   0.0008505
   11.66   23.21   18.59   0.0008274
   13.52   23.28   26.89   0.0008173
   15.06   23.05   35.19   0.0008139
   15.16   22.44   44.80   0.0007959
   11.95   22.04   57.96   0.0008249
   10.87   31.74   12.34   0.0010759
   12.95   31.96   21.17   0.0011586
   14.45   32.13   28.59   0.0011045
   15.29   31.86   33.97   0.0010994
   16.57   31.55   40.03   0.0011123
   16.69   30.64   50.39   0.0010395
   13.16   38.95   14.62   0.0009639
   14.52   38.72   24.07   0.0009526
   14.89   38.81   29.17   0.0009848
   15.10   38.72   32.85   0.0009637
   15.33   38.56   37.28   0.0009193
   15.99   38.35   46.22   0.0009465
   14.86   46.32   16.23   0.0006010
   15.15   46.25   26.45   0.0005925
   15.07   46.22   29.35   0.0006079
   14.98   46.23   31.78   0.0005889
   14.91   46.28   34.61   0.0005667
   15.07   46.28   42.77   0.0005893
   14.92   55.93   21.32   0.0002940
   15.09   56.33   27.68   0.0003033
   15.05   56.35   29.28   0.0003053
   15.01   56.36   30.71   0.0002969
   14.98   56.35   32.35   0.0002812
   15.07   55.93   38.11   0.0002847
   35.46  156.62 -160.71   0.0001357
   60.83  149.99 -139.66   0.0001468
   68.81  145.98 -135.21   0.0001380
  -38.79  146.23 -166.94   0.0001335
  -30.13  150.59 -160.63   0.0001314
   -5.39  156.39 -139.11   0.0001238
   47.16  166.74 -148.38   0.0000673
   74.72  158.37 -122.61   0.0000800
   84.30  152.01 -115.33   0.0000764
  -53.83  151.88  176.02   0.0000793
  -44.00  158.21 -176.48   0.0000761
  -15.45  166.58 -149.84   0.0000595
  113.04  172.41  -82.02   0.0000559
  104.68  161.65  -91.20   0.0000650
  103.65  153.94  -93.84   0.0000685
  -73.05  153.85  154.66   0.0000718
  -73.07  161.72  152.87   0.0000627
  -79.44  173.25  145.64   0.0000489
   17.95   13.87   11.98   0.0002975
   19.47   14.15   20.48   0.0002989
   21.34   14.12   28.62   0.0002964
   22.05   13.77   37.91   0.0002996
   20.35   13.41   49.59   0.0002978
   18.09   13.49   61.83   0.0002975
   21.13   22.43    8.91   0.0008744
   21.95   22.99   18.48   0.0008423
   23.60   23.15   26.94   0.0008227
   25.15   23.03   35.02   0.0008227
   25.79   22.53   43.99   0.0008248
   23.29   21.95   56.63   0.0008669
   21.09   31.62   12.51   0.0011249
   23.11   31.82   21.27   0.0011918
   24.44   32.08   28.36   0.0011240
   25.28   31.89   33.45   0.0011171
   26.71   31.66   39.41   0.0011606
   27.13   30.74   49.70   0.0011064
   23.24   38.93   15.24   0.0010214
   24.58   38.68   24.14   0.0009898
   24.88   38.82   28.79   0.0009964
   25.09   38.75   32.33   0.0009709
   25.41   38.62   36.74   0.0009539
   26.16   38.40   45.95   0.0010030
   24.92   46.31   17.30   0.0006313
   25.17   46.23   26.25   0.0006089
   25.09   46.20   28.99   0.0006049
   25.00   46.22   31.35   0.0005853
   24.94   46.27   34.15   0.0005771
   25.12   46.26   42.96   0.0006148
   25.03   56.02   21.93   0.0003055
   25.14   56.33   27.47   0.0003067
   25.09   56.36   29.01   0.0003038
   25.05   56.38   30.40   0.0002941
   25.02   56.37   32.01   0.0002846
   25.11   55.98   38.15   0.0002942
   46.05  156.62 -160.13   0.0001431
   70.69  150.61 -139.49   0.0001529
   78.43  145.93 -135.14   0.0001437
  -29.02  146.06 -167.10   0.0001407
  -20.36  150.57 -160.85   0.0001422
    4.67  156.50 -139.03   0.0001328
   57.81  166.70 -147.74   0.0000749
   84.75  158.35 -122.60   0.0000898
   94.21  152.04 -115.43   0.0000886
  -43.99  151.83  175.88   0.0000976
  -34.19  158.19 -176.67   0.0000886
   -5.58  166.66 -149.98   0.0000705
  121.61  172.28  -83.45   0.0000541
  114.42  161.62  -91.46   0.0000707
  113.53  153.99  -93.97   0.0000620
  -63.09  153.81  154.63   0.0000685
  -63.18  161.65  152.76   0.0000682
  -69.39  173.15  145.69   0.0000463
   29.09   13.55   10.83   0.0002964
   29.78   13.86   20.15   0.0002978
   31.35   13.94   28.59   0.0002993
   32.51   13.73   37.44   0.0003038
   32.04   13.40   47.91   0.0003052
   30.16   13.30   59.77   0.0003033
   32.15   22.17    7.99   0.0008877
   32.24   22.80   18.31   0.0008545
   33.67   23.10   26.90   0.0008448
   35.31   23.11   34.59   0.0008514
   36.55   22.72   43.00   0.0008689
   35.09   21.98   54.79   0.0009020
   31.35   31.46   12.54   0.0011642
   33.24   31.68   21.25   0.0012196
   34.39   32.06   27.89   0.0011582
   35.28   31.97   32.81   0.0011735
   36.87   31.79   38.85   0.0012376
   37.60   30.88   49.13   0.0011719
   33.32   38.89   15.63   0.0010585
   34.62   38.64   23.95   0.0010092
   34.85   38.85   28.24   0.0010078
   35.09   38.79   31.70   0.0010157
   35.51   38.71   36.17   0.0010131
   36.36   38.49   45.87   0.0010700
   34.98   46.28   18.11   0.0006350
   35.18   46.20   25.88   0.0005992
   35.10   46.18   28.51   0.0005883
   35.01   46.20   30.82   0.0005860
   34.95   46.25   33.64   0.0005937
   35.18   46.22   43.45   0.0006324
   35.10   56.03   22.28   0.0002891
   35.18   56.31   27.18   0.0002814
   35.14   56.34   28.67   0.0002783
   35.09   56.36   30.03   0.0002814
   35.06   56.35   31.62   0.0002795
   35.17   55.99   38.35   0.0002839
   56.56  156.60 -159.62   0.0001322
   80.67  150.64 -139.28   0.0001393
   88.23  146.09 -134.94   0.0001366
  -19.20  145.67 -167.14   0.0001392
  -10.55  150.55 -161.04   0.0001388
   14.82  156.61 -138.88   0.0001268
   68.27  166.64 -147.28   0.0000772
   94.68  158.33 -122.68   0.0000896
  104.08  152.07 -115.58   0.0000947
  -34.12  151.79  175.76   0.0001070
  -24.33  158.19 -176.81   0.0000938
    4.37  166.76 -150.02   0.0000723
  130.39  172.20  -84.68   0.0000526
  124.12  161.61  -91.79   0.0000642
  125.16  153.91  -92.33   0.0000570
  -53.14  153.79  154.57   0.0000643
  -53.31  161.62  152.62   0.0000630
  -59.43  173.09  145.65   0.0000449
   78.07   72.76  150.00   0.0002952
   30.93   74.11 -151.34   0.0003006
   40.39   74.44 -151.10   0.0003052
   49.84   74.48 -150.86   0.0003102
   59.27   74.21 -150.61   0.0003113
   68.69   73.63 -150.33   0.0003037
   77.16   79.53  151.14   0.0009015
   31.50   81.85 -151.91   0.0008761
   40.65   82.49 -151.34   0.0008867
   49.80   82.63 -150.78   0.0008972
   58.95   82.18 -150.21   0.0009037
   68.08   81.11 -149.59   0.0009241
   41.62   31.29   12.39   0.0012003
   43.33   31.57   21.05   0.0012664
   44.32   32.07   27.27   0.0012318
   45.28   32.07   32.12   0.0012516
   47.02   31.95   38.45   0.0013059
   48.01   31.05   48.80   0.0012210
   43.40   38.82   15.80   0.0010853
   44.63   38.63   23.52   0.0010449
   44.80   38.89   27.60   0.0010651
   45.07   38.86   31.01   0.0010872
   45.61   38.81   35.67   0.0010703
   46.56   38.59   46.08   0.0011060
   45.03   46.23   18.56   0.0006204
   45.18   46.15   25.40   0.0005829
   45.09   46.14   27.95   0.0005857
   45.01   46.16   30.24   0.0005958
   44.96   46.21   33.14   0.0005975
   45.22   46.17   44.34   0.0006269
   45.16   56.00   22.40   0.0002478
   45.22   56.27   26.82   0.0002441
   45.17   56.30   28.28   0.0002490
   45.13   56.32   29.62   0.0002573
   45.10   56.31   31.22   0.0002476
   45.23   55.97   38.77   0.0002486
   66.92  156.56 -159.28   0.0001035
   90.59  150.68 -139.13   0.0001139
   98.04  146.25 -134.70   0.0001170
   -9.45  145.49 -167.06   0.0001172
   -0.68  150.54 -161.18   0.0001095
   25.06  156.70 -138.65   0.0001005
   78.45  166.58 -147.10   0.0000640
  104.54  158.33 -122.84   0.0000757
  113.92  152.11 -115.75   0.0000838
  -24.21  151.76  175.66   0.0000912
  -14.38  158.21 -176.88   0.0000797
   14.48  166.84 -149.91   0.0000609
  139.42  172.18  -85.66   0.0000397
  133.79  161.64  -92.14   0.0000438
  134.96  153.95  -92.55   0.0000453
  -44.90  153.55  152.71   0.0000460
  -43.43  161.62  152.50   0.0000442
  -49.52  173.07  145.57   0.0000358
   87.99   72.62  150.08   0.0002979
   41.00   74.22 -151.46   0.0003059
   50.45   74.50 -151.21   0.0003133
   59.88   74.49 -150.95   0.0003160
   69.31   73.80 -150.79   0.0003104
   78.70   73.19 -150.50   0.0003027
   87.12   79.33  151.31   0.0009245
   41.56   82.01 -151.95   0.0009171
   50.70   82.62 -151.37   0.0009399
   59.84   82.69 -150.79   0.0009301
   68.98   81.63 -150.31   0.0009249
   78.05   81.01 -149.51   0.0009455
   51.90   31.14   12.05   0.0012552
   53.36   31.51   20.64   0.0013516
   54.23   32.11   26.57   0.0013208
   55.27   32.19   31.52   0.0013213
   57.17   32.12   38.30   0.0013727
   58.33   31.23   48.76   0.0012775
   53.46   38.76   15.75   0.0011514
   54.60   38.64   22.93   0.0011231
   54.74   38.94   26.91   0.0011386
   55.05   38.94   30.35   0.0011472
   55.70   38.93   35.35   0.0011263
   56.73   38.69   46.63   0.0011510
   55.06   46.16   18.67   0.0006241
   55.17   46.10   24.83   0.0006001
   55.08   46.08   27.36   0.0006006
   54.99   46.11   29.67   0.0005957
   54.95   46.16   32.70   0.0005967
   55.23   46.11   45.66   0.0006244
   55.19   55.96   22.34   0.0002189
   55.23   56.22   26.43   0.0002191
   55.18   56.25   27.88   0.0002260
   55.13   56.26   29.23   0.0002227
   55.11   56.26   30.85   0.0002083
   55.27   55.92   39.46   0.0002143
   77.08  156.49 -159.13   0.0000798
  100.46  150.71 -139.12   0.0000860
  107.87  146.40 -134.48   0.0000907
    0.33  145.32 -166.84   0.0000888
    9.25  150.53 -161.23   0.0000772
   35.39  156.76 -138.32   0.0000720
   88.34  166.52 -147.22   0.0000527
  114.33  158.33 -123.06   0.0000655
  123.76  152.13 -115.92   0.0000734
  -14.25  151.75  175.59   0.0000779
   -4.36  158.25 -176.88   0.0000643
   24.77  166.91 -149.62   0.0000495
  148.61  172.24  -86.48   0.0000175
  143.45  161.70  -92.50   0.0000195
  144.76  153.99  -92.77   0.0000222
  -34.99  153.57  152.62   0.0000226
  -33.53  161.67  152.40   0.0000210
  -39.66  173.10  145.44   0.0000169
   97.99   72.11  150.02   0.0003023
   51.05   73.91 -151.54   0.0003133
   60.49   74.12 -151.33   0.0003181
   69.90   74.04 -151.08   0.0003133
   79.27   73.67 -150.79   0.0003103
   88.63   73.01 -150.42   0.0003066
   97.20   78.59  151.30   0.0009663
   51.59   81.63 -151.90   0.0009671
   60.73   82.14 -151.37   0.0009734
   69.84   82.11 -150.83   0.0009448
   78.94   81.50 -150.24   0.0009471
   88.05   80.30 -149.55   0.0009770
   44.69   92.05 -156.04   0.0013371
   53.68   93.50 -153.55   0.0014407
   60.61   94.40 -151.69   0.0013899
   67.29   94.60 -149.94   0.0013840
   76.22   94.19 -147.60   0.0014431
   86.47   92.14 -144.51   0.0013473
   63.51   38.71   15.50   0.0012396
   64.53   38.66   22.28   0.0011978
   64.67   39.01   26.27   0.0012064
   65.02   39.03   29.78   0.0012126
   65.78   39.05   35.25   0.0012089
   66.86   38.79   47.43   0.0012342
   65.07   46.09   18.48   0.0006635
   65.14   46.04   24.26   0.0006289
   65.05   46.02   26.81   0.0006168
   64.96   46.05   29.16   0.0006085
   64.94   46.11   32.40   0.0006257
   65.21   46.05   47.25   0.0006589
   65.19   55.92   22.14   0.0002137
   65.22   56.16   26.06   0.0002165
   65.17   56.18   27.52   0.0002139
   65.12   56.19   28.88   0.0002025
   65.09   56.19   30.54   0.0001999
   65.29   55.86   40.40   0.0002090
   87.07  156.41 -159.16   0.0000758
  110.19  150.27 -139.39   0.0000847
  117.74  146.53 -134.32   0.0000863
   10.16  145.18 -166.54   0.0000778
   19.23  150.52 -161.16   0.0000688
   45.78  156.77 -137.95   0.0000677
   97.99  166.46 -147.57   0.0000614
  124.09  158.33 -123.31   0.0000790
  133.60  152.15 -116.09   0.0000864
   -4.25  151.76  175.56   0.0000848
    5.73  158.29 -176.82   0.0000702
   35.20  166.95 -149.19   0.0000539
  157.81  172.37  -87.29   0.0000338
  153.11  161.77  -92.85   0.0000408
  154.57  154.02  -92.98   0.0000416
  -25.07  153.59  152.54   0.0000424
  -23.62  161.74  152.31   0.0000394
  -29.87  173.17  145.25   0.0000286
  107.89   71.90  150.29   0.0003071
   61.08   73.90 -151.63   0.0003164
   70.49   74.05 -151.38   0.0003163
   79.85   73.92 -151.08   0.0003119
   89.19   73.49 -150.71   0.0003144
   98.53   72.80 -150.26   0.0003137
  107.16   78.29  151.64   0.0010026
   61.61   81.65 -151.90   0.0009941
   70.71   82.10 -151.35   0.0009905
   79.79   82.00 -150.77   0.0009651
   88.86   81.29 -150.11   0.0009867
   97.98   80.02 -149.33   0.0010264
   54.32   91.70 -155.45   0.0014159
   63.21   93.24 -153.27   0.0015100
   70.39   94.17 -151.58   0.0014567
   77.59   94.41 -149.89   0.0014591
   86.86   93.62 -148.09   0.0015313
   96.86   91.56 -145.64   0.0014357
   73.52   38.68   15.06   0.0013264
   74.44   38.71   21.66   0.0012724
   74.60   39.08   25.72   0.0012902
   74.99   39.12   29.40   0.0013164
   75.85   39.17   35.41   0.0013126
   76.97   38.88   48.24   0.0013271
   75.07   46.03   18.10   0.0007091
   75.11   45.97   23.73   0.0006673
   75.01   45.96   26.35   0.0006552
   74.93   45.98   28.78   0.0006628
   74.92   46.04   32.29   0.0006900
   75.18   46.00   48.70   0.0007152
   75.16   55.87   21.87   0.0002325
   75.19   56.08   25.74   0.0002288
   75.14   56.10   27.23   0.0002228
   75.08   56.11   28.62   0.0002146
   75.05   56.11   30.34   0.0002197
   75.27   55.80   41.41   0.0002297
   96.92  156.32 -159.30   0.0000908
  120.09  150.32 -139.50   0.0000985
  127.66  146.63 -134.23   0.0000941
   20.03  145.08 -166.23   0.0000847
   29.25  150.51 -160.94   0.0000799
   56.18  156.75 -137.57   0.0000808
  107.49  166.41 -148.08   0.0000777
  133.85  158.34 -123.56   0.0000987
  143.47  152.16 -116.24   0.0001046
    5.79  151.78  175.56   0.0000971
   15.86  158.34 -176.72   0.0000789
   45.68  166.96 -148.70   0.0000654
  166.93  172.55  -88.19   0.0000408
  162.79  161.85  -93.19   0.0000536
  164.40  154.04  -93.17   0.0000508
  -15.13  153.63  152.47   0.0000488
  -13.69  161.82  152.23   0.0000459
  -20.13  173.26  145.01   0.0000318
  117.80   71.70  150.64   0.0003090
   71.08   73.83 -151.68   0.0003149
   80.44   73.92 -151.38   0.0003179
   89.77   73.73 -151.01   0.0003146
   99.09   73.26 -150.56   0.0003207
  108.43   72.56 -150.00   0.0003188
  117.13   78.02  152.04   0.0010217
   71.57   81.60 -151.88   0.0010096
   80.64   81.99 -151.30   0.0010189
   89.71   80.95 -150.75   0.0009946
   98.88   80.20 -150.03   0.0010218
  107.92   79.73 -149.03   0.0010609
   63.96   91.44 -154.87   0.0014660
   72.85   93.07 -152.94   0.0015799
   80.37   93.99 -151.38   0.0015487
   87.94   94.21 -149.76   0.0015453
   97.01   93.64 -147.81   0.0016146
  106.94   91.54 -145.34   0.0015026
   83.49   38.68   14.51   0.0013958
   84.32   38.78   21.16   0.0013619
   84.53   39.16   25.36   0.0014074
   84.97   39.21   29.25   0.0014420
   85.90   39.28   35.78   0.0014047
   87.04   38.96   48.80   0.0014050
   85.05   45.97   17.61   0.0007618
   85.07   45.91   23.32   0.0007283
   84.97   45.89   26.04   0.0007290
   84.89   45.92   28.59   0.0007442
   84.90   45.98   32.41   0.0007494
   85.15   45.94   49.68   0.0007645
   85.11   55.82   21.60   0.0002534
   85.14   56.00   25.52   0.0002491
   85.08   56.01   27.06   0.0002449
   85.02   56.02   28.50   0.0002417
   84.99   56.03   30.29   0.0002472
   85.21   55.74   42.27   0.0002515
  106.69  156.23 -159.52   0.0001006
  130.04  150.36 -139.60   0.0001050
  137.64  146.71 -134.20   0.0000967
   29.94  145.01 -165.96   0.0000925
   39.28  150.49 -160.68   0.0000915
   66.51  156.69 -137.25   0.0000920
  116.93  166.35 -148.64   0.0000796
  143.62  158.34 -123.79   0.0001005
  153.37  152.15 -116.36   0.0001019
   15.87  151.80  175.58   0.0000932
   26.01  158.37 -176.59   0.0000778
   56.12  166.94 -148.28   0.0000700
  175.97  172.74  -89.15   0.0000349
  172.52  161.93  -93.47   0.0000462
  174.27  154.06  -93.31   0.0000431
   -5.16  153.68  152.43   0.0000390
   -3.74  161.90  152.18   0.0000359
  -10.35  173.34  144.79   0.0000266
  127.74   71.55  151.06   0.0003071
   81.02   73.69 -151.69   0.0003165
   90.35   73.73 -151.32   0.0003210
   99.66   73.49 -150.87   0.0003181
  108.99   73.01 -150.32   0.0003246
  118.35   72.35 -149.67   0.0003204
  127.11   77.81  152.46   0.0010319
   81.44   80.66 -151.88   0.0010337
   90.51   80.92 -151.29   0.0010521
   99.61   80.66 -150.60   0.0010199
  108.84   79.89 -149.76   0.0010418
  118.18   78.64 -148.75   0.0010763
   73.63   91.25 -154.32   0.0015104
   82.60   92.97 -152.58   0.0016631
   90.47   93.87 -151.11   0.0016397
   98.20   94.03 -149.60   0.0016048
  107.28   93.13 -148.08   0.0016488
  116.88   90.98 -146.07   0.0015339
   93.39   38.71   13.94   0.0014721
   94.20   38.87   20.85   0.0014736
   94.48   39.24   25.23   0.0015273
   94.97   39.29   29.36   0.0015122
   95.93   39.35   36.28   0.0014467
   97.10   39.03   49.00   0.0014606
   95.01   45.92   17.09   0.0008318
   95.04   45.86   23.08   0.0008247
   94.94   45.84   25.94   0.0008219
   94.86   45.86   28.62   0.0008072
   94.88   45.94   32.74   0.0007944
   95.13   45.91   50.05   0.0008181
   95.05   55.79   21.37   0.0002837
   95.08   55.92   25.43   0.0002805
   95.02   55.92   27.04   0.0002761
   94.95   55.93   28.54   0.0002701
   94.92   55.94   30.42   0.0002722
   95.15   55.68   42.79   0.0002769
  116.44  156.15 -159.77   0.0001031
  140.02  150.39 -139.66   0.0001040
  147.69  146.74 -134.20   0.0000981
   39.88  144.98 -165.78   0.0000973
   48.69  149.77 -160.83   0.0000992
   76.72  156.61 -137.04   0.0000996
  126.40  166.31 -149.18   0.0000713
  153.43  158.34 -123.99   0.0000861
  163.30  152.13 -116.46   0.0000875
   25.98  151.83  175.64   0.0000819
   36.17  158.39 -176.46   0.0000706
   66.41  166.88 -147.99   0.0000630
 -174.90  172.92  -90.02   0.0000174
 -177.67  161.99  -93.65   0.0000227
 -175.80  154.07  -93.40   0.0000219
    4.84  153.73  152.43   0.0000192
    6.26  161.96  152.18   0.0000170
   -0.42  173.40  144.73   0.0000140
  137.91   70.98  151.29   0.0003071
   90.94   72.88 -151.69   0.0003187
  100.28   72.85 -151.28   0.0003246
  109.63   72.62 -150.76   0.0003208
  119.03   72.20 -150.14   0.0003248
  128.47   71.65 -149.44   0.0003172
  137.48   76.92  152.75   0.0010466
   91.31   80.41 -151.84   0.0010518
  100.37   80.63 -151.18   0.0010723
  109.52   80.36 -150.39   0.0010250
  118.82   79.60 -149.42   0.0010417
  128.20   78.41 -148.33   0.0010795
   83.37   91.10 -153.83   0.0015696
   92.42   92.90 -152.23   0.0017269
  100.55   93.78 -150.85   0.0016756
  108.34   93.87 -149.44   0.0015982
  117.33   93.12 -147.81   0.0016476
  126.86   90.91 -145.78   0.0015627
  103.24   38.78   13.41   0.0015793
  104.08   38.99   20.76   0.0015684
  104.46   39.33   25.36   0.0015704
  104.98   39.37   29.71   0.0015096
  105.93   39.38   36.85   0.0014605
  107.13   39.09   48.86   0.0015153
  104.95   45.89   16.55   0.0009321
  105.01   45.83   23.06   0.0009142
  104.91   45.81   26.08   0.0008703
  104.83   45.83   28.89   0.0008196
  104.86   45.90   33.20   0.0008228
  105.13   45.88   49.81   0.0008836
  104.99   55.76   21.20   0.0003256
  105.01   55.85   25.51   0.0003177
  104.96   55.84   27.20   0.0003045
  104.89   55.85   28.77   0.0002895
  104.85   55.86   30.73   0.0002968
  105.08   55.62   42.87   0.0003149
  126.16  156.08 -160.03   0.0001107
  150.23  150.05 -139.53   0.0001076
  157.81  146.74 -134.24   0.0001044
   49.85  145.01 -165.69   0.0001056
   58.58  149.76 -160.82   0.0001083
   86.78  156.51 -136.98   0.0001081
  135.90  166.29 -149.68   0.0000703
  163.29  158.34 -124.15   0.0000865
  173.26  152.10 -116.53   0.0000902
   36.11  151.87  175.71   0.0000848
   46.31  158.39 -176.33   0.0000744
   76.49  166.80 -147.91   0.0000657
 -165.47  173.07  -90.59   0.0000320
 -167.74  162.05  -93.73   0.0000404
 -165.82  154.08  -93.43   0.0000383
   14.89  153.78  152.46   0.0000331
   16.32  162.00  152.23   0.0000299
    9.81  173.43  144.96   0.0000254
  147.89   70.99  151.74   0.0003075
  100.83   72.62 -151.58   0.0003205
  110.17   72.59 -151.07   0.0003266
  119.56   72.39 -150.45   0.0003188
  128.99   72.04 -149.74   0.0003205
  138.44   71.57 -148.99   0.0003157
  147.42   76.93  153.11   0.0010527
  101.15   80.12 -151.77   0.0010579
  110.25   80.34 -151.02   0.0010658
  119.47   80.08 -150.10   0.0010108
  128.83   79.36 -149.03   0.0010343
  138.20   78.27 -147.92   0.0010853
   93.16   90.96 -153.42   0.0015966
  102.26   92.87 -151.93   0.0017252
  110.58   93.74 -150.61   0.0016410
  118.40   93.76 -149.31   0.0015692
  127.34   92.71 -147.98   0.0016540
  136.85   90.19 -146.23   0.0016014
  113.06   38.87   12.95   0.0016447
  113.99   39.11   20.89   0.0015679
  114.47   39.41   25.73   0.0015307
  115.01   39.43   30.23   0.0014873
  115.92   39.37   37.41   0.0014965
  117.13   39.12   48.58   0.0015871
  114.85   45.88   16.02   0.0010037
  114.99   45.83   23.26   0.0009262
  114.90   45.80   26.46   0.0008498
  114.83   45.81   29.38   0.0008241
  114.84   45.88   33.75   0.0008827
  115.13   45.88   49.03   0.0009750
  114.92   55.75   21.10   0.0003651
  114.96   55.81   25.77   0.0003378
  114.90   55.79   27.55   0.0003185
  114.84   55.79   29.18   0.0003146
  114.79   55.81   31.21   0.0003381
  115.03   55.57   42.59   0.0003669
  135.85  156.03 -160.33   0.0001314
  160.31  150.08 -139.48   0.0001263
  167.76  146.59 -134.45   0.0001281
   59.83  145.07 -165.72   0.0001305
   68.48  149.74 -160.92   0.0001355
   96.67  156.41 -137.09   0.0001341
  145.43  166.29 -150.15   0.0000909
  173.20  158.33 -124.26   0.0001131
 -176.74  152.07 -116.55   0.0001173
   46.25  151.89  175.80   0.0001100
   55.64  158.77 -177.00   0.0000964
   86.35  166.70 -148.07   0.0000834
 -155.57  173.19  -90.68   0.0000681
 -157.70  162.09  -93.68   0.0000858
 -155.76  154.07  -93.38   0.0000743
   24.97  153.83  152.53   0.0000670
   26.44  162.03  152.35   0.0000592
   20.41  173.43  145.56   0.0000496
  157.88   71.09  152.13   0.0003075
  110.72   72.36 -151.38   0.0003212
  120.09   72.36 -150.78   0.0003247
  129.51   72.22 -150.07   0.0003145
  138.97   71.95 -149.31   0.0003185
  148.43   71.58 -148.56   0.0003153
  157.87   76.04  153.40   0.0010441
  110.85   78.71 -151.80   0.0010397
  120.16   80.07 -150.79   0.0010439
  129.46   79.86 -149.76   0.0009956
  139.30   78.12 -148.52   0.0010331
   72.23  152.71  -12.53   0.0010866
  102.99   90.76 -153.09   0.0015652
  112.15   92.53 -151.56   0.0016580
  120.58   93.25 -150.39   0.0015886
  128.43   93.40 -149.26   0.0015597
  137.37   92.36 -147.94   0.0016759
  146.88   90.08 -146.03   0.0016118
  122.90   38.98   12.58   0.0016037
  123.94   39.24   21.19   0.0014844
  124.51   39.49   26.31   0.0014653
  125.06   39.48   30.88   0.0015025
  125.89   39.33   37.89   0.0015554
  127.08   39.11   48.42   0.0016277
  124.76   45.89   15.57   0.0009852
  124.98   45.85   23.68   0.0008768
  124.91   45.82   27.04   0.0008351
  124.83   45.82   30.06   0.0008775
  124.84   45.88   34.33   0.0009675
  125.14   45.90   47.94   0.0010245
  124.86   55.75   21.02   0.0003749
  124.91   55.79   26.19   0.0003410
  124.86   55.78   28.05   0.0003417
  124.80   55.77   29.74   0.0003643
  124.75   55.78   31.81   0.0003995
  124.97   55.56   42.12   0.0004120
  145.46  156.02 -160.70   0.0001502
  170.78  149.68 -139.16   0.0001495
  178.04  146.50 -134.55   0.0001559
   69.82  145.18 -165.86   0.0001589
   77.68  149.14 -161.49   0.0001650
  106.36  156.30 -137.38   0.0001583
  154.97  166.33 -150.62   0.0001084
 -176.38  158.56 -123.76   0.0001348
 -166.69  152.05 -116.53   0.0001397
   56.37  151.91  175.87   0.0001264
   65.89  158.70 -176.78   0.0001098
   95.98  166.58 -148.44   0.0000978
 -145.11  173.29  -90.22   0.0000778
 -147.53  162.11  -93.49   0.0000987
 -145.64  154.06  -93.26   0.0000832
   35.09  153.88  152.63   0.0000738
   36.62  162.03  152.53   0.0000659
   31.43  173.39  146.56   0.0000557
  167.88   71.25  152.45   0.0003066
  120.63   72.13 -151.11   0.0003196
  130.04   72.19 -150.42   0.0003218
  139.49   72.13 -149.65   0.0003119
  148.96   71.96 -148.88   0.0003180
  158.43   71.67 -148.17   0.0003137
   93.01  152.73  -70.31   0.0010169
 -159.58  151.43   75.67   0.0010144
 -149.18  150.47   76.55   0.0010293
 -139.35  149.30   76.65   0.0009919
   70.08  151.41  -14.87   0.0010272
   81.37  152.21  -12.89   0.0010705
 -145.48  153.24  101.05   0.0014760
   21.22  147.63  -39.59   0.0015841
   27.15  148.50  -42.80   0.0015595
   33.68  149.75  -44.43   0.0015634
   43.52  151.62  -43.46   0.0016627
   55.40  154.31  -40.83   0.0015562
  132.78   39.10   12.33   0.0014860
  133.91   39.36   21.53   0.0014076
  134.58   39.55   27.03   0.0014613
  135.13   39.51   31.63   0.0015479
  135.85   39.26   38.28   0.0015560
  137.00   39.06   48.37   0.0015549
  134.67   45.94   15.24   0.0009121
  134.99   45.91   24.25   0.0008453
  134.93   45.86   27.78   0.0008751
  134.86   45.85   30.85   0.0009585
  134.84   45.90   34.95   0.0009970
  135.14   45.94   46.94   0.0009812
  134.79   55.74   20.92   0.0003757
  134.89   55.81   26.74   0.0003637
  134.84   55.79   28.67   0.0003892
  134.78   55.79   30.40   0.0004250
  134.73   55.79   32.48   0.0004392
  134.91   55.61   41.65   0.0004179
  156.76  155.86 -159.65   0.0001638
 -178.95  149.64 -139.09   0.0001708
 -171.79  146.24 -134.63   0.0001761
   79.99  145.14 -166.11   0.0001793
   87.56  149.18 -161.77   0.0001862
  115.88  156.19 -137.83   0.0001738
  164.48  166.39 -151.10   0.0001094
 -166.33  158.59 -123.71   0.0001360
 -156.60  152.02 -116.45   0.0001369
   66.45  151.93  175.91   0.0001213
   76.06  158.58 -176.64   0.0001108
  105.45  166.44 -148.98   0.0000992
 -134.15  173.36  -89.24   0.0000573
 -137.24  162.11  -93.19   0.0000700
 -135.44  154.03  -93.06   0.0000619
   45.22  153.91  152.75   0.0000534
   46.84  162.01  152.74   0.0000484
   42.78  173.32  147.90   0.0000436
  178.09   70.89  152.53   0.0003051
  130.55   71.24 -150.81   0.0003167
  140.07   71.39 -150.07   0.0003190
  149.61   71.44 -149.29   0.0003109
  159.13   71.38 -148.57   0.0003156
  168.62   71.20 -147.95   0.0003117
  102.09  152.98  -71.21   0.0009863
 -149.41  151.35   75.80   0.0009898
 -138.45  150.40   77.30   0.0010146
 -128.57  149.17   77.62   0.0009782
   79.04  151.69  -15.97   0.0009992
   90.12  152.54  -14.12   0.0010321
 -135.32  153.68  101.30   0.0014046
   31.42  147.51  -39.32   0.0015413
   38.26  148.61  -41.54   0.0015482
   46.06  149.97  -41.88   0.0015306
   56.41  151.83  -40.33   0.0015891
   65.28  154.34  -40.97   0.0014578
  142.71   39.22   12.21   0.0013937
  143.89   39.48   21.82   0.0013839
  144.66   39.60   27.80   0.0014771
  145.20   39.53   32.42   0.0015210
  145.80   39.19   38.59   0.0014603
  146.90   39.00   48.23   0.0014238
  144.62   46.02   14.96   0.0008733
  145.01   45.99   24.89   0.0008712
  144.97   45.94   28.59   0.0009332
  144.89   45.92   31.67   0.0009735
  144.85   45.95   35.60   0.0009358
  145.11   45.99   46.27   0.0008987
  144.73   55.75   20.79   0.0003861
  144.88   55.87   27.36   0.0003995
  144.83   55.85   29.34   0.0004327
  144.77   55.83   31.08   0.0004448
  144.72   55.83   33.15   0.0004300
  144.85   55.71   41.25   0.0004049
  166.41  155.89 -159.99   0.0001762
 -168.61  149.58 -139.07   0.0001865
 -161.43  145.93 -134.50   0.0001877
   90.47  145.13 -166.28   0.0001869
   97.00  148.78 -162.35   0.0001920
  124.30  156.03 -139.29   0.0001837
  173.98  166.47 -151.59   0.0001044
 -156.16  158.64 -123.54   0.0001232
 -145.42  151.94 -115.17   0.0001226
   75.58  151.85  175.13   0.0001146
   86.14  158.46 -176.59   0.0001064
  114.84  166.30 -149.60   0.0000976
 -123.79  172.35  -88.40   0.0000306
 -126.86  162.08  -92.80   0.0000358
 -125.20  153.99  -92.82   0.0000336
   55.36  153.92  152.87   0.0000305
   57.07  161.97  152.97   0.0000281
   54.25  173.21  149.35   0.0000252
 -171.89   71.12  152.65   0.0003020
 -162.36   70.60  152.90   0.0003129
  150.06   71.43 -149.63   0.0003155
  159.60   71.56 -148.89   0.0003078
  169.12   71.56 -148.25   0.0003128
  178.61   71.43 -147.73   0.0003077
  113.61  153.02  -69.83   0.0009651
 -138.23  151.58   77.07   0.0009688
 -127.57  150.35   78.40   0.0009837
 -117.72  149.06   78.83   0.0009458
   87.98  151.95  -17.06   0.0009574
  101.59  152.59  -12.72   0.0009917
 -128.38  154.00   97.82   0.0013647
   42.97  146.00  -36.65   0.0015120
   50.14  147.99  -38.61   0.0014936
   56.35  150.09  -41.46   0.0014384
   66.31  152.03  -40.42   0.0014710
   78.98  154.27  -36.95   0.0013724
  152.69   39.32   12.21   0.0013562
  153.91   39.57   22.13   0.0013695
  154.75   39.63   28.55   0.0014370
  158.09  103.43 -148.16   0.0014042
  164.40  102.73 -145.14   0.0013305
  156.80   38.97   47.93   0.0013269
  154.60   46.11   14.45   0.0008730
  155.04   46.09   25.51   0.0008970
  155.01   46.04   29.38   0.0009260
  154.93   46.01   32.44   0.0008972
  154.88   46.04   36.18   0.0008516
  155.07   46.07   45.72   0.0008538
  154.69   55.79   20.63   0.0004077
  154.89   55.96   28.00   0.0004242
  154.85   55.93   30.00   0.0004446
  154.78   55.92   31.74   0.0004335
  154.73   55.91   33.77   0.0004135
  154.81   55.85   40.91   0.0004009
  176.03  155.91 -160.34   0.0001899
 -158.21  149.51 -139.02   0.0001995
 -150.86  145.75 -134.34   0.0001936
  100.49  145.38 -166.53   0.0001921
  106.90  148.88 -162.63   0.0002008
  133.89  155.95 -139.71   0.0001923
 -176.48  166.56 -152.03   0.0001080
 -145.88  158.68 -123.26   0.0001242
 -135.13  151.91 -114.89   0.0001249
   85.67  151.81  175.20   0.0001200
   96.14  158.33 -176.62   0.0001171
  124.24  166.18 -150.21   0.0001065
 -111.52  173.41  -86.60   0.0000583
 -116.45  162.03  -92.38   0.0000704
 -114.94  153.92  -92.56   0.0000667
   65.47  153.92  152.97   0.0000627
   67.26  161.90  153.15   0.0000606
   65.51  173.08  150.59   0.0000529
 -161.84   71.34  152.65   0.0002987
 -152.28   70.77  152.79   0.0003091
  160.07   71.56 -149.22   0.0003111
  169.61   71.75 -148.56   0.0003063
  179.13   71.80 -148.02   0.0003090
 -171.36   71.68 -147.62   0.0003023
  123.14  153.05  -70.30   0.0009409
 -129.93  151.39   75.27   0.0009322
 -119.00  150.14   76.75   0.0009412
 -108.90  148.84   77.28   0.0009101
   99.73  151.90  -15.26   0.0009262
  111.21  152.68  -13.09   0.0009642
 -118.66  155.65   97.68   0.0013237
   52.89  147.25  -37.07   0.0014375
   60.17  148.33  -38.74   0.0013894
   67.86  150.27  -39.67   0.0013323
   77.52  152.51  -39.18   0.0013941
   90.12  154.65  -35.80   0.0013304
  145.58  101.87 -157.39   0.0013178
  155.73  103.37 -153.17   0.0012994
  163.45  103.58 -150.33   0.0013143
  168.56  103.50 -148.08   0.0012769
  165.75   39.14   39.16   0.0012436
 -176.72  101.31 -139.97   0.0012891
  164.63   46.21   13.71   0.0008685
  165.07   46.22   26.08   0.0008609
  165.05   46.15   30.07   0.0008423
  164.97   46.12   33.07   0.0008236
  164.90   46.15   36.62   0.0008030
  165.05   46.18   45.14   0.0008483
  164.67   55.88   20.47   0.0004238
  164.91   56.07   28.59   0.0004273
  164.87   56.04   30.58   0.0004264
  164.81   56.02   32.29   0.0004152
  164.75   56.01   34.26   0.0004089
  164.79   55.99   40.65   0.0004174
 -174.29  155.95 -160.64   0.0002041
 -147.79  149.44 -138.89   0.0002096
 -140.32  145.38 -133.83   0.0002016
  110.47  145.61 -166.80   0.0002004
  116.82  148.98 -162.85   0.0002149
  143.48  155.87 -140.14   0.0002068
 -166.79  166.65 -152.33   0.0001233
 -135.46  158.69 -122.85   0.0001392
 -124.79  151.87 -114.57   0.0001481
   95.67  151.78  175.19   0.0001455
  106.04  158.24 -176.74   0.0001420
  133.69  166.09 -150.77   0.0001294
 -100.43  173.38  -85.50   0.0000856
 -102.54  161.52  -88.46   0.0001097
 -104.70  153.85  -92.32   0.0001058
   75.54  153.90  153.02   0.0001005
   75.37  161.43  151.24   0.0001016
   76.25  172.93  151.30   0.0000834
 -151.56   70.76  152.49   0.0002959
 -141.97   70.22  152.51   0.0003044
  170.10   70.86 -148.88   0.0003098
  179.73   71.10 -148.32   0.0003036
 -170.68   71.18 -147.90   0.0003041
 -161.12   71.07 -147.64   0.0002982
  132.98  152.90  -70.50   0.0009075
 -119.28  151.38   76.04   0.0008931
 -108.43  150.12   77.45   0.0009076
  -98.66  148.69   77.51   0.0008866
  109.47  152.00  -15.53   0.0008991
  120.85  152.72  -13.46   0.0009342
 -108.83  155.53   97.57   0.0012484
   62.99  146.71  -36.41   0.0013358
   70.24  148.51  -38.71   0.0012975
   77.88  150.43  -39.75   0.0012717
   87.63  152.45  -39.12   0.0013511
   99.79  154.62  -36.12   0.0012811
  155.60  101.73 -158.30   0.0012244
  166.06  103.38 -153.06   0.0011870
  173.72  103.63 -150.13   0.0012070
  178.92  103.46 -147.94   0.0012042
 -175.49  102.67 -144.59   0.0011997
 -167.18  101.45 -140.30   0.0012371
  174.68   46.33   13.14   0.0008072
  175.11   46.35   26.63   0.0007751
  175.09   46.28   30.61   0.0007686
  175.01   46.24   33.51   0.0007821
  174.94   46.28   36.88   0.0007850
  175.06   46.31   44.56   0.0008245
  174.69   56.00   20.35   0.0004074
  174.95   56.19   29.09   0.0004033
  174.91   56.16   31.04   0.0004028
  174.84   56.14   32.71   0.0004130
  174.78   56.13   34.60   0.0004141
  174.80   56.13   40.40   0.0004131
 -164.48  155.99 -160.82   0.0002107
 -137.38  149.37 -138.64   0.0002150
 -129.74  145.22 -133.44   0.0002121
  120.71  145.82 -166.89   0.0002126
  126.41  148.73 -163.19   0.0002275
  153.12  155.83 -140.52   0.0002174
 -156.84  166.74 -152.38   0.0001353
 -124.96  158.67 -122.35   0.0001564
 -114.46  151.80 -114.27   0.0001680
  105.60  151.77  175.11   0.0001609
  115.82  158.20 -176.96   0.0001633
  143.19  166.05 -151.28   0.0001463
  -89.76  173.33  -84.82   0.0000944
  -92.37  161.36  -88.27   0.0001231
  -92.66  153.36  -90.03   0.0001229
  -93.22  146.17  -91.67   0.0001178
   85.39  161.30  151.25   0.0001157
   86.28  172.77  151.32   0.0000964
 -141.50   70.88  152.30   0.0002926
 -131.91   70.27  152.25   0.0003043
 -122.30   69.45  152.13   0.0003083
 -170.26   71.36 -148.18   0.0002992
 -160.66   71.42 -147.89   0.0003007
 -151.08   71.26 -147.74   0.0002942
  142.84  152.66  -70.71   0.0008741
  154.93  152.35  -67.57   0.0008681
  -98.42  149.74   77.32   0.0008870
  -88.43  148.58   77.72   0.0008694
  119.54  152.07  -15.48   0.0008742
  130.79  152.65  -13.56   0.0008981
  126.22  156.64  -89.39   0.0011628
  -88.63  152.98   98.45   0.0012574
   80.28  148.71  -38.80   0.0012466
   89.43  150.69  -38.29   0.0012332
   99.35  152.91  -37.48   0.0012901
  111.72  155.27  -34.28   0.0012001
  165.60  101.69 -158.39   0.0011145
  176.70  103.30 -153.15   0.0010911
 -175.90  103.58 -149.97   0.0011393
 -170.88  103.42 -147.89   0.0011558
 -165.56  102.72 -144.67   0.0011276
 -157.98  101.65 -139.75   0.0011368
 -175.27   46.45   12.96   0.0007282
 -174.84   46.47   27.11   0.0007059
 -174.86   46.41   30.95   0.0007312
 -174.95   46.37   33.73   0.0007527
 -175.03   46.41   36.93   0.0007431
 -174.91   46.45   44.01   0.0007478
 -175.26   56.15   20.34   0.0003746
 -175.00   56.31   29.43   0.0003786
 -175.04   56.28   31.34   0.0003918
 -175.11   56.26   32.95   0.0004063
 -175.17   56.26   34.77   0.0003958
 -175.17   56.27   40.13   0.0003782
 -154.51  156.05 -160.85   0.0002000
 -126.39  148.80 -137.79   0.0002147
 -119.17  144.88 -132.65   0.0002142
  130.90  146.05 -166.96   0.0002148
  136.38  148.84 -163.29   0.0002260
  162.79  155.83 -140.87   0.0002130
 -147.68  166.56 -153.14   0.0001319
 -114.45  158.61 -121.85   0.0001566
 -104.19  151.72 -114.02   0.0001706
  115.43  151.79  174.95   0.0001557
  125.47  158.20 -177.30   0.0001616
  153.01  165.39 -151.58   0.0001469
  -79.54  173.26  -84.60   0.0000881
  -82.46  161.18  -88.34   0.0001120
  -82.70  153.22  -90.06   0.0001262
  -83.17  146.13  -91.68   0.0001088
   95.12  161.16  150.99   0.0001071
   95.63  172.61  150.67   0.0001009
 -131.44   70.93  152.05   0.0002932
 -121.58   69.26  151.95   0.0003044
 -111.99   68.45  151.78   0.0003038
 -160.15   70.47 -148.13   0.0002962
 -150.46   70.50 -147.93   0.0002968
 -140.80   70.30 -147.87   0.0002907
  155.30  153.42  -68.49   0.0008546
  168.09  153.35  -64.74   0.0008494
  -89.85  150.08   75.75   0.0008624
  -79.67  148.64   76.15   0.0008488
  131.12  151.99  -13.97   0.0008407
  142.77  153.00  -11.78   0.0008635
  137.24  158.69  -88.68   0.0011053
  -78.80  152.82   98.29   0.0012153
   91.65  148.72  -37.24   0.0012067
   99.41  150.84  -38.46   0.0011800
  108.96  153.17  -37.93   0.0012128
  120.99  155.70  -35.07   0.0011194
  175.87  101.57 -159.29   0.0010370
 -172.92  103.25 -152.97   0.0010409
 -165.40  103.51 -149.81   0.0010957
 -160.76  103.39 -147.67   0.0010803
 -155.92  102.82 -144.35   0.0010294
 -148.42  101.85 -140.11   0.0010303
 -165.22   46.56   13.22   0.0006629
 -164.79   46.58   27.46   0.0006660
 -164.83   46.53   31.07   0.0006889
 -164.92   46.50   33.74   0.0006847
 -165.00   46.53   36.78   0.0006547
 -164.86   46.59   43.47   0.0006597
 -165.18   56.30   20.50   0.0003459
 -164.94   56.42   29.61   0.0003522
 -164.99   56.39   31.45   0.0003600
 -165.05   56.37   33.01   0.0003608
 -165.12   56.37   34.75   0.0003413
 -165.12   56.40   39.79   0.0003329
 -144.41  156.12 -160.73   0.0001853
 -116.10  148.73 -137.32   0.0001990
 -108.78  144.80 -132.19   0.0001924
  140.75  146.17 -167.16   0.0001913
  146.08  148.62 -163.51   0.0002028
  172.50  155.87 -141.17   0.0001935
 -136.90  166.65 -152.37   0.0001226
 -102.69  158.17 -119.99   0.0001411
  -94.02  151.64 -113.85   0.0001498
  125.19  151.82  174.74   0.0001396
  134.99  158.24 -177.75   0.0001502
  162.32  165.55 -152.25   0.0001380
  -69.65  173.17  -84.71   0.0000817
  -72.69  161.00  -88.56   0.0000954
  -72.86  153.08  -90.20   0.0001061
  -73.19  146.10  -91.71   0.0000959
  104.69  161.03  150.56   0.0000954
  104.55  172.45  149.59   0.0000920
 -121.17   69.83  151.78   0.0002938
 -111.57   69.11  151.66   0.0002998
 -101.98   68.22  151.52   0.0002996
 -150.15   70.67 -148.22   0.0002931
 -140.45   70.62 -148.13   0.0002939
 -130.79   70.34 -148.13   0.0002896
  165.39  153.45  -68.45   0.0008450
  178.34  153.76  -64.61   0.0008307
  -79.52  150.16   76.12   0.0008374
  -69.63  148.56   76.19   0.0008211
  141.10  152.06  -14.01   0.0008127
  152.79  153.06  -11.78   0.0008407
  147.11  158.72  -88.82   0.0010829
  -68.95  152.66   98.15   0.0011889
  -59.32  150.35   98.68   0.0011596
  109.35  150.98  -38.61   0.0011160
  118.84  153.26  -38.06   0.0011397
  130.83  155.76  -35.25   0.0010703
 -173.55  101.55 -160.11   0.0009985
 -162.22  103.21 -153.05   0.0010083
 -155.12  103.51 -149.79   0.0010357
 -150.92  103.39 -147.80   0.0009868
 -146.30  102.94 -144.65   0.0009380
 -138.78  102.04 -140.43   0.0009687
 -155.18   46.65   13.85   0.0006148
 -154.74   46.68   27.59   0.0006143
 -154.80   46.62   30.97   0.0006160
 -154.89   46.60   33.54   0.0005906
 -154.97   46.63   36.46   0.0005748
 -154.81   46.70   42.96   0.0005963
 -155.09   56.43   20.77   0.0003009
 -154.88   56.50   29.61   0.0002993
 -154.93   56.48   31.39   0.0003011
 -154.99   56.46   32.91   0.0002990
 -155.06   56.46   34.58   0.0002892
 -155.06   56.50   39.39   0.0002891
 -134.23  156.19 -160.57   0.0001551
 -106.55  149.17 -137.26   0.0001624
  -98.44  144.57 -131.45   0.0001523
  150.86  146.27 -167.19   0.0001583
  156.48  149.01 -163.29   0.0001732
 -177.74  155.93 -141.41   0.0001678
 -125.80  166.73 -151.29   0.0001054
  -92.30  158.07 -119.62   0.0001186
  -82.67  150.94 -112.31   0.0001207
  134.24  151.35  173.59   0.0001197
  143.75  157.89 -179.05   0.0001371
  171.47  165.79 -153.07   0.0001234
  -59.89  173.10  -84.95   0.0000658
  -62.93  160.87  -88.80   0.0000824
  -63.06  152.96  -90.37   0.0000831
  -63.25  146.07  -91.75   0.0000754
  114.21  160.92  150.10   0.0000905
  113.37  172.31  148.42   0.0000805
 -111.17   69.67  151.49   0.0002910
 -101.57   68.87  151.40   0.0002963
  -91.97   67.91  151.34   0.0002951
 -140.13   70.79 -148.40   0.0002912
 -130.44   70.65 -148.38   0.0002931
 -120.79   70.27 -148.43   0.0002886
  175.24  154.22  -68.68   0.0008419
 -171.40  154.27  -64.44   0.0008153
  -69.24  150.25   76.45   0.0008090
  -59.16  148.63   76.75   0.0008017
  150.51  152.34  -14.66   0.0007983
  162.59  153.35  -12.01   0.0008313
  157.75  160.47  -88.26   0.0010814
  -59.90  153.80   97.32   0.0011583
  -50.35  150.94   97.65   0.0010980
  120.54  151.19  -37.39   0.0010644
  130.04  154.05  -36.96   0.0011044
  141.94  157.09  -34.30   0.0010579
 -162.63  101.64 -160.80   0.0009697
 -151.10  103.27 -153.49   0.0009550
 -145.12  103.55 -149.95   0.0009488
 -141.21  103.47 -147.82   0.0009110
 -144.17   39.36   37.78   0.0008853
 -128.56  102.08 -141.49   0.0009377
 -145.14   46.73   14.70   0.0005587
 -144.72   46.74   27.47   0.0005446
 -144.78   46.69   30.68   0.0005281
 -144.87   46.67   33.18   0.0005169
 -144.96   46.71   36.01   0.0005153
 -144.75   46.79   42.49   0.0005471
 -144.99   56.53   21.08   0.0002483
 -144.82   56.56   29.44   0.0002413
 -144.87   56.54   31.18   0.0002419
 -144.94   56.53   32.66   0.0002533
 -145.00   56.53   34.28   0.0002464
 -144.99   56.58   38.95   0.0002422
 -125.53  156.52 -161.74   0.0001197
  -96.51  149.13 -136.84   0.0001242
  -88.42  144.58 -131.20   0.0001222
  160.77  146.25 -167.27   0.0001328
  166.65  149.09 -163.15   0.0001466
 -167.86  156.01 -141.52   0.0001347
 -114.72  166.77 -150.23   0.0000867
  -82.15  158.02 -119.51   0.0000937
  -72.67  150.90 -112.32   0.0000962
  143.74  151.40  173.15   0.0001015
  152.87  157.98 -179.86   0.0001182
 -179.41  166.06 -153.91   0.0001020
 -112.47  112.05   35.99   0.0000576
  -53.12  160.79  -88.99   0.0000661
  -53.23  152.90  -90.54   0.0000651
  -53.31  146.06  -91.80   0.0000617
  123.78  160.86  149.68   0.0000793
  125.48  108.72  -29.85   0.0000725
 -101.18   69.42  151.23   0.0002893
  -91.57   68.55  151.22   0.0002931
  -81.95   67.57  151.25   0.0002923
 -129.72  147.52  -50.62   0.0002915
  -53.17  145.71   60.10   0.0002937
 -174.20  148.28    2.89   0.0002871
 -172.86  155.50  -66.91   0.0008370
 -158.46  155.80  -61.78   0.0007945
  -60.47  150.60   75.12   0.0007892
  -50.13  148.61   75.61   0.0007959
  161.76  152.61  -13.28   0.0007934
  173.97  154.23  -10.65   0.0008304
  165.30  161.24  -90.71   0.0010631
  -50.08  153.69   97.16   0.0011119
  -40.46  150.81   97.55   0.0010510
  130.46  151.32  -37.47   0.0010419
  139.92  154.15  -37.09   0.0010938
  150.42  157.63  -35.84   0.0010556
 -136.38   39.18   13.52   0.0009311
 -135.38   39.37   24.33   0.0008909
 -135.53  103.52 -150.28   0.0008844
 -131.65  103.48 -148.13   0.0008655
 -134.19   39.40   37.20   0.0008587
 -118.66  102.18 -141.61   0.0009175
 -135.11   46.77   15.54   0.0004993
 -134.72   46.78   27.13   0.0004782
 -134.77   46.73   30.25   0.0004735
 -134.86   46.72   32.71   0.0004750
 -134.95   46.75   35.48   0.0004698
 -134.70   46.85   42.15   0.0004986
 -134.91   56.58   21.27   0.0002016
 -134.78   56.59   29.13   0.0002008
 -134.82   56.58   30.84   0.0002075
 -134.89   56.57   32.30   0.0002181
 -134.95   56.58   33.89   0.0002039
 -134.93   56.62   38.49   0.0001976
 -115.18  156.56 -161.47   0.0000907
  -87.86  149.99 -137.54   0.0000978
  -78.75  144.79 -131.33   0.0001019
  170.78  146.17 -167.22   0.0001129
  177.27  149.53 -162.65   0.0001158
 -156.96  156.42 -140.70   0.0001006
 -103.94  166.77 -149.48   0.0000696
  -72.27  158.02 -119.64   0.0000713
  -62.80  150.92 -112.45   0.0000747
  153.35  151.46  172.79   0.0000828
  162.23  158.08  179.54   0.0000967
 -170.06  166.33 -154.53   0.0000786
 -102.50  112.08   35.97   0.0000410
  -45.59   99.52   90.27   0.0000429
  -43.67   88.24   90.05   0.0000422
  -43.10  144.61  -91.82   0.0000423
  135.33   98.96  -30.02   0.0000537
  135.46  108.72  -29.96   0.0000489
 -153.00  148.32  -55.34   0.0002876
 -141.74  148.24  -53.64   0.0002915
 -130.45  148.06  -51.87   0.0002933
  -53.19  146.15   60.10   0.0002939
  -43.50  145.78   59.80   0.0002925
 -164.14  148.30    3.14   0.0002847
 -162.89  155.59  -66.91   0.0008252
 -148.83  156.42  -62.13   0.0007774
  -49.71  150.72   75.90   0.0007802
  -39.44  148.66   76.41   0.0007991
  170.52  152.80  -14.31   0.0007959
 -177.09  154.57  -11.61   0.0008232
  173.80  161.76  -91.95   0.0010468
  -40.70  154.32   96.53   0.0010767
  -30.34  151.22   97.73   0.0010274
  140.35  151.35  -37.60   0.0010418
  149.33  154.61  -37.74   0.0010964
  160.04  158.04  -36.17   0.0010494
 -126.27   39.10   13.90   0.0008940
 -125.34   39.30   24.01   0.0008472
 -124.90   39.48   28.90   0.0008480
 -122.23  103.57 -148.41   0.0008352
 -124.22   39.41   36.68   0.0008408
 -108.17  102.09 -142.35   0.0008967
 -125.07   46.78   16.11   0.0004598
 -124.73   46.79   26.66   0.0004406
 -124.78   46.74   29.74   0.0004374
 -124.87   46.73   32.18   0.0004323
 -124.97   46.76   34.95   0.0004239
 -124.66   46.86   42.00   0.0004579
 -124.85   56.59   21.28   0.0001731
 -124.75   56.60   28.72   0.0001751
 -124.79   56.59   30.43   0.0001827
 -124.86   56.58   31.87   0.0001815
 -124.91   56.59   33.46   0.0001638
 -124.88   56.64   38.08   0.0001616
  -96.55   91.01   25.55   0.0000751
  -78.10  150.01 -137.70   0.0000822
  -69.26  145.33 -131.64   0.0000882
 -179.16  146.09 -166.94   0.0000936
 -171.61  150.30 -161.75   0.0000903
 -153.57   91.29   35.26   0.0000786
  -95.99  100.41   29.02   0.0000571
  -92.85   95.48   33.24   0.0000581
  -87.29   92.21   44.63   0.0000636
  -47.27  143.40 -108.63   0.0000699
  171.86  158.20  179.20   0.0000768
 -153.88  100.41   31.81   0.0000656
  -92.56  112.16   35.90   0.0000136
  -35.56   99.63   90.11   0.0000144
  -33.67   88.28   90.00   0.0000146
  -33.28  144.62  -91.97   0.0000156
  145.37   99.08  -30.08   0.0000204
  145.44  108.77  -30.10   0.0000171
 -142.78  148.69  -54.99   0.0002878
 -131.47  148.72  -53.32   0.0002939
 -120.09  148.32  -51.58   0.0002944
  -43.57  146.27   59.77   0.0002932
  -33.75  145.79   59.54   0.0002904
  -24.02  145.12   59.20   0.0002832
 -152.90  155.66  -66.89   0.0008153
 -138.79  156.47  -62.05   0.0007710
  -39.69  150.63   75.94   0.0007774
  -30.07  148.41   75.67   0.0008075
 -178.29  152.82  -13.31   0.0007927
 -166.10  154.42  -10.68   0.0008107
 -175.66  161.33  -91.59   0.0010227
  -29.41  153.95   97.92   0.0010526
  -20.57  150.56   97.45   0.0010197
  150.22  151.53  -37.73   0.0010533
  159.60  154.32  -37.43   0.0011038
  171.34  157.32  -34.89   0.0010417
 -116.17   39.01   13.89   0.0008561
 -115.34   39.23   23.52   0.0008104
 -114.95   39.43   28.31   0.0008193
 -112.74  103.55 -148.78   0.0008223
 -114.26   39.41   36.32   0.0008373
  -98.08  102.11 -142.28   0.0008713
 -115.04   46.75   16.31   0.0004303
 -114.76   46.76   26.11   0.0004069
 -114.80   46.71   29.20   0.0004002
 -114.90   46.71   31.67   0.0003896
 -114.99   46.75   34.47   0.0003954
 -114.64   46.84   42.07   0.0004315
 -114.82   56.56   21.10   0.0001597
 -114.74   56.57   28.26   0.0001574
 -114.79   56.57   29.99   0.0001587
 -114.84   56.57   31.44   0.0001489
 -114.90   56.58   33.03   0.0001398
 -114.85   56.61   37.75   0.0001462
  -95.08  156.53 -161.46   0.0000736
  -67.82  149.59 -137.58   0.0000791
  -59.49  145.50 -131.59   0.0000824
 -169.10  146.43 -166.06   0.0000830
 -161.89  149.71 -161.67   0.0000800
 -136.12  156.57 -139.89   0.0000735
  -83.57  166.68 -149.14   0.0000561
  -53.30  158.14 -120.63   0.0000569
  -43.50  151.10 -113.08   0.0000617
  172.93  151.64  172.42   0.0000678
 -178.26  158.36  179.10   0.0000725
 -149.90  166.77 -154.32   0.0000618
  -82.54  112.16   36.53   0.0000089
  -23.48  161.01  -89.40   0.0000099
  -23.67  153.05  -90.96   0.0000100
  -23.49  146.08  -91.93   0.0000110
  152.67  161.07  148.60   0.0000139
  155.39  108.36  -30.32   0.0000109
 -132.63  148.92  -54.87   0.0002914
 -123.50  148.14  -55.31   0.0002949
 -112.31  147.75  -53.66   0.0002924
  -32.54  146.95   60.97   0.0002928
  -23.25  146.59   60.43   0.0002890
  -13.97  146.03   59.80   0.0002831
 -144.40  154.89  -68.38   0.0008110
 -130.58  155.50  -63.75   0.0007712
  -29.33  149.91   76.30   0.0007795
  -19.28  148.33   76.57   0.0008115
   -9.96  146.70   76.05   0.0007845
 -157.36  153.90  -12.00   0.0007954
 -166.39  160.56  -92.49   0.0010054
  -19.35  152.09   97.75   0.0010474
   -9.46  149.77   98.54   0.0010275
  158.64  151.45  -39.48   0.0010717
  167.80  153.83  -39.26   0.0011008
  179.41  156.51  -36.81   0.0010191
 -106.11   38.92   13.63   0.0008207
 -105.38   39.16   22.98   0.0007874
 -105.01   39.39   27.78   0.0008074
 -104.70   39.52   31.49   0.0008266
 -104.29   39.40   36.18   0.0008317
  -87.91  102.10 -142.14   0.0008439
 -105.02   46.70   16.19   0.0004023
 -104.80   46.71   25.56   0.0003746
 -104.84   46.66   28.71   0.0003664
 -104.93   46.66   31.23   0.0003692
 -105.02   46.70   34.10   0.0003860
 -104.65   46.78   42.33   0.0004117
 -104.83   56.48   20.75   0.0001496
 -104.75   56.53   27.80   0.0001395
 -104.80   56.53   29.57   0.0001374
 -104.86   56.53   31.04   0.0001330
 -104.91   56.54   32.66   0.0001326
 -104.85   56.55   37.54   0.0001446
  -85.21  156.49 -161.61   0.0000756
  -58.78  150.10 -138.30   0.0000773
  -49.72  145.48 -131.69   0.0000768
 -158.65  146.34 -165.71   0.0000770
 -151.40  149.80 -161.13   0.0000772
 -125.52  156.58 -139.30   0.0000760
  -73.74  166.59 -149.33   0.0000572
  -44.05  158.20 -121.34   0.0000588
  -34.89  151.75 -114.58   0.0000633
 -175.72  152.12  173.99   0.0000695
 -168.18  158.55  179.20   0.0000715
 -139.06  166.94 -153.46   0.0000640
  -72.53  112.17   37.19   0.0000080
  -13.63  161.19  -89.55   0.0000090
  -13.84  153.18  -91.11   0.0000095
  -13.54  146.09  -91.97   0.0000104
  162.23  161.24  148.18   0.0000126
  165.32  108.49  -30.50   0.0000100
 -124.38  148.41  -56.70   0.0002935
 -113.17  148.41  -55.12   0.0002935
  -32.54  147.22   60.75   0.0002922
  -23.10  146.96   60.45   0.0002933
  -13.34  146.39   60.35   0.0002891
   -4.08  145.83   59.70   0.0002851
 -134.24  154.91  -68.22   0.0008152
 -120.40  155.50  -63.56   0.0007755
  -18.47  149.61   77.11   0.0007857
   -8.64  148.63   77.37   0.0008092
    0.31  147.49   76.59   0.0007739
 -149.02  153.24  -13.65   0.0007859
 -156.58  160.64  -92.68   0.0010047
   -9.30  152.02   97.79   0.0010610
    0.65  149.69   98.58   0.0010476
  168.61  151.43  -39.54   0.0010809
  177.63  153.86  -39.44   0.0010781
 -170.77  156.54  -36.99   0.0009905
  -96.09   38.84   13.23   0.0007994
  -95.45   39.11   22.48   0.0007837
  -95.07   39.33   27.37   0.0008175
  -94.76   39.46   31.22   0.0008370
  -94.32   39.36   36.29   0.0008090
  -78.04  102.10 -141.18   0.0008114
  -95.03   46.63   15.83   0.0003738
  -94.85   46.64   25.08   0.0003516
  -94.88   46.59   28.32   0.0003557
  -94.97   46.60   30.91   0.0003719
  -95.06   46.64   33.89   0.0003773
  -94.67   46.70   42.68   0.0003903
  -94.88   56.33   20.28   0.0001384
  -94.79   56.46   27.40   0.0001255
  -94.84   56.46   29.22   0.0001283
  -94.89   56.47   30.72   0.0001319
  -94.94   56.48   32.38   0.0001344
  -94.84   56.43   37.49   0.0001429
  -75.37  156.46 -161.79   0.0000790
  -49.07  150.14 -138.57   0.0000783
  -39.78  145.64 -131.72   0.0000790
 -148.57  146.69 -165.20   0.0000830
 -140.56  150.31 -160.41   0.0000847
 -114.95  156.57 -138.75   0.0000837
  -63.95  166.51 -149.54   0.0000550
  -35.42  158.64 -122.76   0.0000590
  -25.13  151.79 -114.78   0.0000623
 -165.70  152.19  174.03   0.0000657
 -155.90  159.02 -178.51   0.0000675
 -127.93  167.06 -152.33   0.0000618
   -3.39  172.38  -88.10   0.0000067
   -3.78  161.38  -89.71   0.0000079
   -3.99  153.30  -91.25   0.0000080
   -3.58  146.10  -91.99   0.0000085
  171.74  161.42  147.72   0.0000100
  175.20  108.23  -30.87   0.0000079
   15.50  145.84   -0.23   0.0002929
 -105.10  147.89  -56.78   0.0002935
  -89.87   71.17 -150.07   0.0002910
  -80.39   70.85 -149.99   0.0002944
   -3.01  147.11   61.02   0.0002917
    6.42  146.44   60.60   0.0002861
 -126.03  154.02  -69.89   0.0008199
  -19.03  150.48   76.00   0.0007812
   -8.52  149.74   77.10   0.0007831
    1.09  148.67   77.09   0.0008019
   10.53  147.28   76.96   0.0007682
 -138.79  153.25  -13.43   0.0007833
  -10.43  153.21   95.77   0.0010138
    2.32  150.97   99.28   0.0010863
  169.69  149.62  -40.36   0.0010592
  176.98  151.13  -41.44   0.0010626
 -173.91  152.96  -40.99   0.0010481
 -162.51  155.67  -38.71   0.0009796
  -86.13   38.77   12.81   0.0008025
  -85.54   39.05   22.09   0.0008109
  -85.13   39.27   27.14   0.0008377
  -84.80   39.40   31.14   0.0008227
  -84.35   39.30   36.58   0.0007701
  -83.01   39.40   45.80   0.0007856
  -85.05   46.55   15.34   0.0003668
  -84.90   46.56   24.73   0.0003587
  -84.93   46.51   28.08   0.0003718
  -85.02   46.52   30.75   0.0003734
  -85.10   46.56   33.85   0.0003582
  -84.71   46.61   43.02   0.0003685
  -84.98   56.09   19.73   0.0001359
  -84.86   56.36   27.09   0.0001268
  -84.89   56.37   28.97   0.0001344
  -84.94   56.37   30.52   0.0001425
  -84.97   56.38   32.22   0.0001401
  -84.83   56.21   37.59   0.0001421
  -66.10  156.31 -162.38   0.0000827
  -39.91  150.61 -139.18   0.0000831
  -29.96  145.61 -131.89   0.0000865
 -138.23  146.75 -164.93   0.0000931
 -129.91  150.80 -159.86   0.0000961
 -104.52  156.54 -138.34   0.0000900
  -54.10  166.43 -149.71   0.0000578
  -25.75  158.68 -123.07   0.0000641
  -15.29  151.82 -114.92   0.0000678
 -155.63  152.25  174.11   0.0000728
 -145.59  159.13 -178.20   0.0000741
 -116.79  167.10 -151.19   0.0000658
    7.19  172.63  -87.50   0.0000072
    6.13  161.54  -89.80   0.0000090
    4.77  153.77  -92.73   0.0000087
 -175.64  154.05  151.89   0.0000095
 -178.70  161.59  147.30   0.0000105
  175.39  171.72  139.91   0.0000080
 -102.07  148.89  -54.74   0.0002933
  -32.11   69.36  151.29   0.0002923
  -79.81   71.85 -150.26   0.0002904
  -70.38   71.56 -150.08   0.0002972
  -60.86   71.14 -149.79   0.0002924
  -51.27   70.61 -149.41   0.0002851
 -114.27  152.42  -67.87   0.0008290
   -7.73  150.47   77.23   0.0007837
    2.41  149.92   78.13   0.0007736
   11.69  149.13   77.93   0.0007961
   20.41  148.17   77.04   0.0007642
 -129.65  152.18  -14.00   0.0007832
  -96.78   90.68 -152.14   0.0010384
  171.37  148.56  -39.82   0.0011010
  178.19  149.49  -42.35   0.0010430
 -166.18   31.35   93.29   0.0010289
 -158.84   32.52   94.25   0.0010221
 -156.23  153.57  -42.35   0.0009831
  -76.25   38.72   12.44   0.0008442
  -75.62   39.01   21.87   0.0008301
  -75.17   39.21   27.11   0.0008206
  -74.84   39.32   31.26   0.0007810
  -74.39   39.22   36.96   0.0007425
  -73.11   39.28   46.25   0.0007951
  -75.09   46.47   14.80   0.0003940
  -74.94   46.48   24.53   0.0003821
  -74.97   46.43   28.01   0.0003801
  -75.06   46.44   30.77   0.0003583
  -75.13   46.47   33.96   0.0003459
  -74.77   46.52   43.25   0.0003722
  -75.10   55.78   19.17   0.0001422
  -74.95   56.21   26.88   0.0001379
  -74.96   56.23   28.83   0.0001474
  -74.99   56.24   30.44   0.0001518
  -75.00   56.24   32.21   0.0001462
  -74.80   55.92   37.82   0.0001494
  -56.22  156.29 -162.50   0.0000890
  -30.04  150.63 -139.30   0.0000916
  -20.13  145.58 -132.07   0.0000994
 -127.93  146.79 -164.80   0.0001076
 -119.62  150.84 -159.68   0.0001068
  -94.27  156.50 -138.10   0.0000972
  -44.21  166.38 -149.83   0.0000692
  -15.94  158.70 -123.25   0.0000786
   -5.36  151.84 -114.97   0.0000838
 -145.50  152.29  174.24   0.0000888
 -135.24  159.18 -177.84   0.0000906
 -105.02  167.02 -149.38   0.0000773
   18.53  172.82  -86.14   0.0000156
   16.19  161.66  -89.74   0.0000189
   14.82  153.81  -92.67   0.0000185
 -165.65  154.08  151.89   0.0000207
 -169.00  161.72  147.02   0.0000229
 -176.54  171.90  138.02   0.0000186
  -31.65   70.02  151.04   0.0002923
  -22.13   69.46  151.30   0.0002922
  -69.94   71.53 -150.41   0.0002923
  -60.46   71.29 -150.13   0.0002979
   17.73  147.30   62.00   0.0002909
  -41.24   70.52 -149.32   0.0002855
 -106.19  151.66  -69.63   0.0008319
    0.75  150.69   75.81   0.0007731
   10.58  150.26   76.34   0.0007644
   19.97  149.56   76.12   0.0007910
   28.91  148.65   75.17   0.0007623
 -118.33  151.35  -12.56   0.0007892
  -86.85   90.82 -152.36   0.0010564
  -77.47   92.78 -150.95   0.0010793
  -68.75   93.44 -149.94   0.0010032
  -61.07   93.66 -149.21   0.0010026
  -52.91   93.24 -148.34   0.0010256
  -43.76   91.62 -147.00   0.0010085
  -66.40   38.70   12.17   0.0008690
  -65.69   38.97   21.81   0.0008081
  -65.20   39.15   27.27   0.0007775
  -64.87   39.23   31.54   0.0007534
  -64.44   39.10   37.33   0.0007596
  -63.22   39.13   46.62   0.0008484
  -65.13   46.40   14.27   0.0004174
  -64.97   46.41   24.52   0.0003778
  -65.00   46.36   28.11   0.0003606
  -65.09   46.36   30.93   0.0003505
  -65.16   46.40   34.18   0.0003603
  -64.82   46.43   43.36   0.0004041
  -65.23   55.47   18.64   0.0001456
  -65.05   56.03   26.79   0.0001414
  -65.03   56.07   28.82   0.0001494
  -65.03   56.08   30.48   0.0001553
  -65.00   56.06   32.32   0.0001549
  -64.78   55.64   38.08   0.0001558
  -46.38  156.29 -162.65   0.0000879
  -20.10  150.64 -139.34   0.0000967
   -9.97  145.75 -132.00   0.0001048
 -117.68  146.82 -164.80   0.0001102
 -109.42  150.84 -159.62   0.0001074
  -84.21  156.45 -138.03   0.0000943
  -34.93  166.74 -150.58   0.0000720
   -6.01  158.73 -123.30   0.0000843
    3.56  151.90 -115.89   0.0000915
 -133.72  152.23  176.04   0.0000947
 -124.87  159.18 -177.47   0.0000905
  -94.65  166.98 -149.01   0.0000767
   30.75  172.90  -83.90   0.0000379
   23.39  162.07  -92.50   0.0000478
   24.92  153.84  -92.56   0.0000479
 -155.60  154.10  151.94   0.0000522
 -154.67  162.16  151.26   0.0000565
 -165.35  173.12  139.81   0.0000476
  -21.89   70.91  151.03   0.0002929
  -69.30   72.16 -150.75   0.0002938
  -59.90   72.13 -150.50   0.0002916
  -50.45   71.96 -150.13   0.0002974
  -40.93   71.70 -149.71   0.0002913
  -31.39   71.34 -149.30   0.0002843
  -22.47   76.75  152.27   0.0008260
  -69.21   79.43 -151.17   0.0007633
  -59.98   79.72 -150.63   0.0007562
  -50.64   79.55 -149.93   0.0007900
  -41.18   78.97 -149.11   0.0007683
  -31.74   77.99 -148.35   0.0007922
  -76.89   91.23 -152.94   0.0010384
  -67.45   93.35 -151.56   0.0010369
  -58.64   94.21 -150.44   0.0009721
  -51.12   94.26 -149.42   0.0010130
  -42.95   93.49 -148.25   0.0010554
  -33.70   91.76 -146.42   0.0010232
  -56.56   38.71   12.03   0.0008510
  -55.74   38.94   21.91   0.0007652
  -55.21   39.09   27.58   0.0007510
  -54.88   39.14   31.93   0.0007818
  -54.51   38.97   37.65   0.0008119
  -53.36   38.96   46.92   0.0008780
  -55.16   46.34   13.81   0.0004157
  -54.98   46.35   24.66   0.0003634
  -55.02   46.30   28.34   0.0003581
  -55.10   46.30   31.21   0.0003821
  -55.18   46.34   34.47   0.0004060
  -54.87   46.37   43.40   0.0004321
  -55.33   55.20   18.23   0.0001456
  -55.14   55.88   26.83   0.0001434
  -55.08   55.93   28.91   0.0001567
  -55.04   55.94   30.63   0.0001675
  -54.98   55.91   32.52   0.0001677
  -54.76   55.42   38.31   0.0001608
  -35.87  156.44 -162.25   0.0000787
  -10.10  150.65 -139.34   0.0000922
   -0.08  145.73 -132.30   0.0001012
 -107.90  147.00 -165.13   0.0001033
  -99.33  150.81 -159.65   0.0000972
  -74.30  156.40 -138.11   0.0000830
  -24.94  166.73 -150.59   0.0000604
    4.05  158.76 -123.24   0.0000732
   13.63  151.90 -115.84   0.0000783
 -123.59  152.24  176.17   0.0000768
 -114.51  159.12 -177.12   0.0000715
  -84.47  166.92 -148.83   0.0000611
   42.35  173.43  -82.79   0.0000314
   33.63  162.07  -92.25   0.0000417
   35.06  153.86  -92.41   0.0000412
 -145.51  154.10  152.05   0.0000433
 -144.49  162.19  151.45   0.0000500
 -155.14  173.22  140.01   0.0000411
  -11.92   71.11  150.96   0.0002952
  -59.41   71.91 -150.85   0.0002926
  -49.96   71.95 -150.51   0.0002889
  -40.45   71.88 -150.08   0.0002978
  -30.91   71.71 -149.65   0.0002899
  -21.40   71.46 -149.29   0.0002846
  -12.52   76.96  152.13   0.0008142
  -59.32   79.16 -151.37   0.0007586
  -50.00   79.52 -150.72   0.0007562
  -40.56   79.43 -149.91   0.0007965
  -31.29   79.91 -149.17   0.0007724
  -22.00   78.98 -148.44   0.0007884
  -66.93   91.84 -154.03   0.0010002
  -57.40   93.78 -152.30   0.0010172
  -48.56   94.52 -150.82   0.0009813
  -41.14   94.44 -149.49   0.0010414
  -32.94   93.60 -147.96   0.0010757
  -23.60   91.89 -145.47   0.0010037
  -46.70   38.74   12.02   0.0008098
  -45.76   38.92   22.12   0.0007484
  -45.20   39.03   28.00   0.0007819
  -44.89   39.04   32.37   0.0008425
  -44.59   38.84   37.88   0.0008444
  -43.51   38.79   47.14   0.0008618
  -45.19   46.29   13.45   0.0004117
  -44.98   46.30   24.93   0.0003754
  -45.02   46.25   28.67   0.0004029
  -45.11   46.26   31.54   0.0004459
  -45.19   46.29   34.77   0.0004488
  -44.92   46.32   43.42   0.0004408
  -45.41   55.02   17.99   0.0001562
  -45.19   55.79   26.98   0.0001607
  -45.09   55.85   29.08   0.0001853
  -45.02   55.85   30.83   0.0001980
  -44.95   55.81   32.74   0.0001879
  -44.76   55.30   38.46   0.0001716
  -25.96  156.46 -162.29   0.0000799
   -0.07  150.65 -139.31   0.0000929
    9.80  145.71 -132.75   0.0001018
  -97.84  146.97 -165.42   0.0001011
  -89.34  150.74 -159.71   0.0000953
  -64.51  156.35 -138.30   0.0000794
  -14.93  166.74 -150.56   0.0000398
   13.38  158.44 -123.88   0.0000491
   23.74  151.91 -115.75   0.0000513
 -113.48  152.23  176.28   0.0000495
 -103.18  158.62 -175.73   0.0000449
  -74.46  166.83 -148.82   0.0000388
   53.40  173.32  -81.73   0.0000030
   43.94  162.05  -91.93   0.0000040
   45.22  153.88  -92.24   0.0000038
 -135.36  154.09  152.20   0.0000043
 -134.22  162.18  151.72   0.0000049
 -144.44  173.32  140.70   0.0000039
   -2.10   71.93  150.90   0.0002938
  -49.35   72.47 -150.94   0.0002894
  -39.91   72.62 -150.53   0.0002888
  -30.45   72.62 -150.08   0.0002971
  -20.99   72.52 -149.67   0.0002905
  -11.54   72.30 -149.33   0.0002871
   -2.88   78.05  151.96   0.0008099
  -49.13   80.03 -151.44   0.0007603
  -39.84   80.47 -150.73   0.0007604
  -30.53   80.42 -149.96   0.0007951
  -21.24   79.98 -149.21   0.0007716
  -12.01   79.16 -148.57   0.0007816
  -56.90   92.42 -155.38   0.0009870
  -47.22   94.21 -153.11   0.0010287
  -38.36   94.83 -151.12   0.0010018
  -31.07   94.64 -149.38   0.0010548
  -22.93   93.74 -147.38   0.0010624
  -13.59   91.88 -144.84   0.0009755
  -36.81   38.79   12.15   0.0007998
  -35.76   38.90   22.41   0.0007750
  -35.19   38.97   28.45   0.0008447
  -34.89   38.94   32.79   0.0008801
  -34.66   38.72   38.04   0.0008332
  -33.67   38.63   47.23   0.0008333
  -35.21   46.27   13.21   0.0004289
  -34.98   46.28   25.29   0.0004205
  -35.02   46.23   29.01   0.0004727
  -35.11   46.23   31.86   0.0004936
  -35.19   46.26   35.04   0.0004549
  -34.96   46.29   43.38   0.0004401
  -35.45   54.95   17.98   0.0001848
  -35.19   55.78   27.20   0.0002024
  -35.08   55.83   29.28   0.0002355
  -35.00   55.84   31.02   0.0002359
  -34.94   55.79   32.92   0.0002097
  -34.78   55.28   38.52   0.0001894
  -16.00  156.49 -162.29   0.0000965
   10.00  150.64 -139.30   0.0001145
   19.67  145.70 -133.34   0.0001218
  -87.86  146.90 -165.75   0.0001178
  -79.44  150.65 -159.80   0.0001092
  -54.77  156.30 -138.54   0.0000939
   -4.88  166.75 -150.50   0.0000470
   23.57  158.44 -123.70   0.0000583
   33.87  151.91 -115.63   0.0000596
 -103.42  152.20  176.35   0.0000559
  -93.19  158.55 -175.73   0.0000535
  -64.57  166.73 -148.94   0.0000460
   64.45  173.18  -80.67   0.0000020
   54.28  162.01  -91.59   0.0000032
   55.39  153.88  -92.07   0.0000027
 -125.17  154.05  152.39   0.0000027
 -123.89  162.15  152.06   0.0000032
 -133.39  173.40  141.74   0.0000023
    7.91   72.15  150.74   0.0002901
  -39.38   72.40 -150.92   0.0002881
  -29.91   72.63 -150.49   0.0002886
  -20.44   72.73 -150.07   0.0002979
  -10.99   72.70 -149.71   0.0002934
   -1.54   72.53 -149.45   0.0002887
    7.08   78.35  151.71   0.0008059
  -39.10   79.96 -151.51   0.0007601
  -29.77   80.45 -150.75   0.0007610
  -20.53   81.30 -150.04   0.0007931
  -11.22   80.16 -149.31   0.0007762
   -2.03   79.42 -148.75   0.0007852
  -29.35   31.72   10.98   0.0009946
  -27.49   32.25   20.13   0.0010414
  -25.68   32.42   27.77   0.0010148
  -24.61   32.15   34.05   0.0010392
  -23.45   31.64   41.34   0.0010509
  -22.91   30.84   51.37   0.0009758
  -26.89   38.84   12.39   0.0008349
  -25.74   38.88   22.74   0.0008272
  -25.16   38.92   28.86   0.0008819
  -24.89   38.86   33.14   0.0008720
  -24.71   38.62   38.15   0.0008123
  -23.83   38.50   47.20   0.0008313
  -25.21   46.26   13.19   0.0004782
  -24.96   46.26   25.67   0.0004838
  -25.01   46.21   29.32   0.0005194
  -25.10   46.22   32.12   0.0004997
  -25.17   46.25   35.23   0.0004520
  -24.98   46.27   43.26   0.0004607
  -25.45   55.01   18.26   0.0002263
  -25.15   55.85   27.44   0.0002521
  -25.05   55.90   29.46   0.0002750
  -24.99   55.90   31.16   0.0002534
  -24.95   55.85   33.02   0.0002223
  -24.82   55.34   38.50   0.0002190
   -5.97  156.51 -162.22   0.0001264
   20.12  150.62 -139.41   0.0001511
   29.53  145.70 -133.98   0.0001505
  -77.95  146.81 -166.04   0.0001439
  -69.60  150.54 -159.95   0.0001339
  -45.03  156.25 -138.78   0.0001193
    5.24  166.76 -150.35   0.0000770
   33.82  158.44 -123.45   0.0000996
   44.02  151.92 -115.50   0.0001009
  -93.41  152.14  176.37   0.0000993
  -83.26  158.46 -175.79   0.0000973
  -54.74  166.64 -149.11   0.0000768
   75.27  173.02  -79.85   0.0000363
   64.58  161.94  -91.28   0.0000496
   65.53  153.87  -91.93   0.0000478
 -114.97  153.99  152.60   0.0000524
 -113.55  162.08  152.40   0.0000574
 -122.18  173.45  142.93   0.0000396
   17.94   72.36  150.54   0.0002884
  -29.36   72.43 -150.89   0.0002879
  -19.88   72.75 -150.47   0.0002912
  -10.47   73.47 -150.12   0.0003011
   -1.06   73.44 -149.78   0.0002955
    8.47   72.78 -149.60   0.0002876
   16.89   79.17  151.65   0.0008031
  -29.02   79.99 -151.54   0.0007611
  -19.70   81.34 -150.84   0.0007685
  -10.49   81.41 -150.11   0.0007986
   -1.34   81.09 -149.46   0.0007838
  -18.64   22.27   58.48   0.0007868
  -19.42   31.80   11.35   0.0010032
  -17.44   32.24   20.42   0.0010476
  -15.65   32.36   28.11   0.0010169
  -14.65   32.03   34.29   0.0010408
  -13.56   31.53   41.24   0.0010636
  -13.36   30.70   51.53   0.0009902
  -16.93   38.89   12.76   0.0008818
  -15.70   38.86   23.11   0.0008558
  -15.14   38.87   29.19   0.0008813
  -14.89   38.79   33.34   0.0008688
  -14.75   38.55   38.17   0.0008386
  -13.98   38.40   47.06   0.0008775
  -15.21   46.27   13.47   0.0005317
  -14.94   46.26   26.03   0.0005240
  -14.99   46.21   29.54   0.0005285
  -15.08   46.22   32.26   0.0005007
  -15.16   46.26   35.28   0.0004774
  -15.00   46.27   43.09   0.0005124
  -15.42   55.18   18.82   0.0002602
  -15.09   55.98   27.65   0.0002790
  -15.02   56.02   29.57   0.0002809
  -15.00   56.01   31.20   0.0002591
  -14.98   55.98   33.00   0.0002426
  -14.87   55.48   38.41   0.0002487
    4.18  156.54 -162.03   0.0001452
   30.27  150.60 -139.58   0.0001687
   39.38  145.73 -134.52   0.0001626
  -68.11  146.69 -166.30   0.0001516
  -59.80  150.43 -160.13   0.0001438
  -35.22  156.23 -138.96   0.0001346
   15.49  166.77 -150.09   0.0000953
   44.10  158.43 -123.18   0.0001190
   54.17  151.94 -115.39   0.0001233
  -83.46  152.07  176.34   0.0001247
  -73.40  158.38 -175.91   0.0001169
  -44.92  166.56 -149.31   0.0000924
   85.61  172.85  -79.50   0.0000646
   74.81  161.87  -91.06   0.0000909
   73.65  153.87  -93.79   0.0000889
 -103.09  154.05  154.59   0.0000984
 -103.26  162.00  152.68   0.0001018
 -111.06  173.46  144.03   0.0000670
  -13.76   14.75   13.68   0.0002874
  -11.03   15.19   21.02   0.0002901
   -7.81   15.16   27.86   0.0002957
   -5.78   14.62   35.85   0.0003038
   -8.66   13.81   48.64   0.0002947
  -13.90   14.00   63.79   0.0002859
  -10.50   23.11   10.32   0.0008049
   -8.80   23.68   18.80   0.0007731
   -6.58   23.69   26.72   0.0007876
   -4.78   23.36   34.96   0.0008099
   -4.74   22.62   44.83   0.0007844
   -9.04   22.23   58.88   0.0007880
   -9.40   31.83   11.73   0.0010085
   -7.34   32.19   20.71   0.0010617
   -5.61   32.29   28.40   0.0010409
   -4.68   31.94   34.39   0.0010636
   -3.59   31.48   41.00   0.0010831
   -3.62   30.62   51.43   0.0009926
   -6.93   38.92   13.26   0.0008974
   -5.64   38.82   23.48   0.0008652
   -5.12   38.84   29.37   0.0008936
   -4.90   38.74   33.37   0.0009100
   -4.76   38.52   38.04   0.0008815
   -4.08   38.34   46.84   0.0009129
   -5.20   46.29   14.12   0.0005543
   -4.91   46.26   26.31   0.0005322
   -4.97   46.22   29.63   0.0005357
   -5.06   46.23   32.25   0.0005311
   -5.13   46.26   35.20   0.0005272
   -4.99   46.28   42.91   0.0005533
   -5.34   55.43   19.60   0.0002742
   -5.02   56.13   27.77   0.0002785
   -5.00   56.16   29.57   0.0002796
   -5.01   56.16   31.13   0.0002712
   -5.01   56.13   32.87   0.0002618
   -4.92   55.65   38.29   0.0002667
   14.47  156.57 -161.71   0.0001438
   40.92  149.97 -139.49   0.0001600
   49.20  145.79 -134.92   0.0001494
  -58.32  146.55 -166.52   0.0001408
  -49.67  150.68 -160.17   0.0001403
  -25.34  156.25 -139.07   0.0001334
   25.90  166.78 -149.66   0.0000903
   54.37  158.42 -122.92   0.0001151
   64.27  151.96 -115.31   0.0001115
  -73.55  152.00  176.26   0.0001119
  -63.58  158.31 -176.08   0.0001076
  -35.10  166.52 -149.49   0.0000829
   95.32  172.70  -79.78   0.0000709
   84.90  161.79  -90.97   0.0000980
   83.70  153.88  -93.75   0.0000983
  -93.05  153.98  154.64   0.0001044
  -93.07  161.90  152.87   0.0001018
 -100.21  173.42  144.88   0.0000683
